Time,Phi (degrees),Theta (degrees)
0.00000,0.00000,0.00000
0.01200,-0.36558,-0.52722
0.03400,-0.98594,-1.27568
0.04600,-1.25646,-1.54439
0.06800,-1.70579,-2.01246
0.09000,-2.01742,-2.41350
0.10200,-2.13785,-2.57759
0.12400,-2.38750,-2.85523
0.13600,-2.44983,-2.93351
0.15800,-2.59462,-3.11714
0.17000,-2.65184,-3.17268
0.19200,-2.74873,-3.32682
0.20400,-2.79342,-3.37437
0.22600,-2.88219,-3.43476
0.24800,-2.89587,-3.43142
0.26000,-2.93037,-3.44971
0.28200,-2.99200,-3.46197
0.29400,-3.02922,-3.49025
0.31600,-3.05168,-3.54075
0.32800,-3.08458,-3.57213
0.35000,-3.17948,-3.55121
0.37200,-3.18715,-3.59085
0.38400,-3.21422,-3.60112
0.40600,-3.26067,-3.60638
0.41800,-3.24006,-3.62404
0.44000,-3.20266,-3.63121
0.45200,-3.21270,-3.64097
0.47400,-3.17242,-3.70097
0.48628,-3.16259,-3.71068
0.50800,-3.14270,-3.77613
0.53000,-3.20218,-3.77629
0.54200,-3.22198,-3.76901
0.56400,-3.19348,-3.75821
0.57600,-3.16831,-3.74086
0.59800,-3.11814,-3.72261
0.61000,-3.13532,-3.72520
0.63200,-3.14303,-3.72755
0.65400,-3.15116,-3.67113
0.66600,-3.15688,-3.67000
0.68300,-3.18660,-3.67443
0.70500,-3.17165,-3.68609
0.71700,-3.18132,-3.69366
0.73900,-3.21434,-3.65945
0.75100,-3.18528,-3.65900
0.77300,-3.21771,-3.65780
0.79500,-3.15941,-3.72356
0.80700,-3.14547,-3.72760
0.82900,-3.10966,-3.73664
0.84100,-3.09949,-3.73364
0.86300,-3.14590,-3.78279
0.87500,-3.13617,-3.78869
0.89700,-3.15050,-3.79621
0.91900,-3.13900,-3.78989
0.93100,-3.17123,-3.76262
0.95300,-3.14840,-3.73558
0.96500,-3.15886,-3.75099
0.98700,-3.15140,-3.73484
0.99900,-3.16702,-3.73621
1.02100,-3.18078,-3.74726
1.03328,-3.19371,-3.76661
1.05500,-3.22482,-3.72351
1.07700,-3.21242,-3.75130
1.08900,-3.23843,-3.75903
1.11100,-3.24504,-3.75225
1.12300,-3.24636,-3.75461
1.14500,-3.23087,-3.78770
1.15700,-3.22362,-3.80157
1.17900,-3.19167,-3.79281
1.20100,-3.18285,-3.80531
1.21300,-3.19641,-3.80092
1.23500,-3.16526,-3.82757
1.24700,-3.19339,-3.84843
1.26900,-3.18668,-3.82192
1.28100,-3.20100,-3.81694
1.30300,-3.20362,-3.79721
1.32500,-3.22512,-3.77816
1.33700,-3.23211,-3.79407
1.35900,-3.25002,-3.81572
1.37100,-3.24884,-3.81929
1.39300,-3.23079,-3.81977
1.40500,-3.23017,-3.82335
1.42700,-3.25400,-3.80017
1.43900,-3.25242,-3.78420
1.46100,-3.27614,-3.78075
1.48300,-3.24487,-3.77539
1.49500,-3.24239,-3.75674
1.51700,-3.29066,-3.75898
1.52900,-3.29893,-3.75908
1.55100,-3.30565,-3.75736
1.56300,-3.30073,-3.76820
1.58500,-3.28421,-3.81588
1.60700,-3.27955,-3.82639
1.61900,-3.27969,-3.83885
1.64100,-3.33005,-3.80810
1.65300,-3.32720,-3.81836
1.67500,-3.33425,-3.80804
1.68700,-3.31878,-3.81036
1.70900,-3.32237,-3.80702
1.73100,-3.31878,-3.79822
1.74300,-3.32631,-3.79552
1.76500,-3.33308,-3.79969
1.77700,-3.32717,-3.79803
1.79900,-3.32585,-3.81886
1.81100,-3.33321,-3.80463
1.83300,-3.33025,-3.81686
1.84500,-3.34079,-3.81555
1.86700,-3.34430,-3.81286
1.88900,-3.33173,-3.79838
1.90100,-3.33272,-3.80112
1.92300,-3.33122,-3.81736
1.93500,-3.32482,-3.81824
1.95700,-3.30818,-3.83013
1.96900,-3.30985,-3.81697
1.99100,-3.26673,-3.81786
2.01300,-3.28454,-3.80432
2.02500,-3.29071,-3.80124
2.04700,-3.28754,-3.78724
2.05900,-3.29110,-3.79794
2.08100,-3.28437,-3.79538
2.09300,-3.28200,-3.79601
2.11500,-3.29975,-3.78138
2.13700,-3.31578,-3.78821
2.14900,-3.31988,-3.78246
2.17100,-3.33067,-3.78944
2.18300,-3.33329,-3.79417
2.20500,-3.32791,-3.78916
2.21700,-3.32392,-3.78963
2.23900,-3.32116,-3.81143
2.25100,-3.33051,-3.81081
2.27300,-3.33204,-3.80295
2.29500,-3.33661,-3.81172
2.30700,-3.34168,-3.80385
2.32900,-3.32761,-3.80244
2.34100,-3.33070,-3.79914
2.36300,-3.34723,-3.79727
2.37500,-3.35492,-3.79155
2.39700,-3.34435,-3.78372
2.41900,-3.36217,-3.78772
2.43100,-3.36936,-3.78636
2.45300,-3.36713,-3.79246
2.46500,-3.37097,-3.79246
2.48700,-3.37125,-3.78937
2.49900,-3.37991,-3.79047
2.52100,-3.38038,-3.78990
2.53300,-3.37652,-3.79128
2.55500,-3.38867,-3.79581
2.57700,-3.38285,-3.78457
2.58900,-3.38311,-3.78802
2.61100,-3.39011,-3.79347
2.62300,-3.39735,-3.79525
2.64500,-3.41000,-3.79756
2.65700,-3.41470,-3.79880
2.68400,-3.42722,-3.79579
2.69600,-3.42700,-3.80272
2.71800,-3.42056,-3.80197
2.73000,-3.42482,-3.80142
2.75200,-3.43891,-3.79931
2.76400,-3.43985,-3.79727
2.78600,-3.44362,-3.79448
2.79800,-3.44652,-3.79560
2.82000,-3.45951,-3.79213
2.84200,-3.46014,-3.78837
2.85400,-3.46443,-3.79555
2.87600,-3.47557,-3.78408
2.88800,-3.47650,-3.78250
2.91000,-3.47034,-3.78489
2.92200,-3.47611,-3.78548
2.94400,-3.48645,-3.78413
2.96600,-3.49408,-3.79111
2.97800,-3.49836,-3.79043
3.00000,-3.50752,-3.78750
3.01200,-3.51573,-3.79284
3.03400,-3.53094,-3.79575
3.04600,-3.53728,-3.79761
3.06800,-3.54577,-3.80358
3.08000,-3.55028,-3.80450
3.10200,-3.55457,-3.80318
3.12400,-3.56883,-3.80395
3.13600,-3.57371,-3.80199
3.15800,-3.57980,-3.80953
3.17000,-3.58233,-3.80548
3.19200,-3.58706,-3.81496
3.20400,-3.59170,-3.81717
3.22600,-3.60045,-3.81999
3.24800,-3.61246,-3.82495
3.26000,-3.61730,-3.82347
3.28200,-3.62728,-3.82749
3.29400,-3.63508,-3.82270
3.31600,-3.64546,-3.82043
3.32800,-3.65166,-3.81813
3.35000,-3.66751,-3.81205
3.37200,-3.67893,-3.81467
3.38400,-3.68320,-3.81459
3.40600,-3.69880,-3.81113
3.41800,-3.70134,-3.81670
3.44000,-3.70949,-3.81077
3.45200,-3.71516,-3.81302
3.47400,-3.72568,-3.82036
3.48600,-3.73152,-3.81845
3.50800,-3.74170,-3.81903
3.53000,-3.75133,-3.82249
3.54200,-3.75350,-3.82030
3.56400,-3.75680,-3.82667
3.57600,-3.76399,-3.83396
3.59800,-3.77381,-3.82671
3.61000,-3.77577,-3.82764
3.63200,-3.78068,-3.83247
3.65400,-3.78941,-3.83630
3.66600,-3.79185,-3.83353
3.68800,-3.80296,-3.83610
3.70000,-3.80512,-3.83682
3.72200,-3.81539,-3.84121
3.73400,-3.81983,-3.83951
3.75600,-3.82985,-3.84425
3.77800,-3.83996,-3.84161
3.79000,-3.84832,-3.84282
3.81200,-3.85066,-3.83933
3.82400,-3.85240,-3.83502
3.84600,-3.85557,-3.84005
3.85800,-3.86044,-3.83502
3.88000,-3.86545,-3.83954
3.89200,-3.86803,-3.84167
3.91400,-3.87374,-3.84780
3.93600,-3.87952,-3.85040
3.94800,-3.88222,-3.85189
3.97000,-3.88394,-3.84845
3.98200,-3.88974,-3.85198
4.00400,-3.89431,-3.86093
4.01600,-3.90013,-3.85585
4.03800,-3.89444,-3.86803
4.06000,-3.89860,-3.86196
4.07200,-3.90139,-3.85928
4.09400,-3.89766,-3.86253
4.10600,-3.90210,-3.85947
4.12800,-3.90381,-3.86101
4.14000,-3.90524,-3.85925
4.16200,-3.91037,-3.86094
4.17400,-3.91425,-3.86326
4.19600,-3.92171,-3.85923
4.21800,-3.92554,-3.86558
4.23000,-3.92781,-3.86891
4.25200,-3.93283,-3.87011
4.26400,-3.93531,-3.87006
4.28600,-3.93667,-3.86418
4.29800,-3.93984,-3.86731
4.32000,-3.94154,-3.87056
4.34200,-3.94833,-3.86770
4.35400,-3.95039,-3.87001
4.37600,-3.95579,-3.87263
4.38800,-3.95784,-3.86930
4.41000,-3.96723,-3.86708
4.42200,-3.97345,-3.86879
4.44400,-3.98060,-3.86094
4.46600,-3.98149,-3.85976
4.47800,-3.98319,-3.86261
4.50000,-3.98654,-3.85160
4.51200,-3.99084,-3.85412
4.53400,-3.99072,-3.86130
4.54600,-3.99101,-3.86067
4.56800,-4.00077,-3.85995
4.58000,-4.00636,-3.85681
4.60200,-4.00710,-3.86036
4.62400,-4.01081,-3.87138
4.63600,-4.01606,-3.86830
4.65800,-4.01905,-3.87236
4.67000,-4.02176,-3.87520
4.68700,-4.02248,-3.86789
4.70900,-4.02938,-3.86903
4.72100,-4.03015,-3.87231
4.74300,-4.03882,-3.85998
4.76500,-4.04406,-3.86375
4.77700,-4.04107,-3.86319
4.79900,-4.04996,-3.86514
4.81100,-4.05368,-3.86918
4.83300,-4.05383,-3.86353
4.84500,-4.05544,-3.86142
4.86700,-4.05657,-3.86571
4.88900,-4.06507,-3.86702
4.90100,-4.06637,-3.86512
4.92300,-4.07090,-3.87213
4.93500,-4.07168,-3.86994
4.95700,-4.07395,-3.86714
4.96900,-4.07229,-3.86761
4.99100,-4.07120,-3.87164
5.01300,-4.07719,-3.87398
5.02500,-4.08043,-3.87144
5.04700,-4.07953,-3.87180
5.05900,-4.08011,-3.87029
5.08100,-4.08682,-3.86932
5.09300,-4.08756,-3.86651
5.11500,-4.08734,-3.87313
5.12700,-4.08988,-3.87148
5.14900,-4.09711,-3.87298
5.17100,-4.10761,-3.87860
5.18300,-4.10919,-3.88011
5.20500,-4.11270,-3.87962
5.21700,-4.11724,-3.87920
5.23900,-4.11344,-3.87830
5.25100,-4.11518,-3.87984
5.27300,-4.11753,-3.88354
5.29500,-4.11644,-3.88300
5.30700,-4.11647,-3.88333
5.32900,-4.11758,-3.88152
5.34100,-4.12071,-3.88701
5.36300,-4.12185,-3.88889
5.37500,-4.12297,-3.88848
5.39700,-4.12483,-3.89141
5.41900,-4.12487,-3.88553
5.43100,-4.12263,-3.88963
5.45300,-4.13459,-3.88566
5.46500,-4.13623,-3.88104
5.48700,-4.14257,-3.88765
5.49900,-4.14409,-3.88810
5.52100,-4.15199,-3.88821
5.53300,-4.15457,-3.88929
5.55500,-4.15993,-3.88660
5.57700,-4.16293,-3.88473
5.58900,-4.16454,-3.88356
5.61100,-4.16499,-3.88074
5.62300,-4.16622,-3.87872
5.64500,-4.17220,-3.87997
5.65700,-4.17320,-3.88059
5.67900,-4.17824,-3.89553
5.70100,-4.18213,-3.89469
5.71300,-4.18179,-3.89654
5.73500,-4.18390,-3.89572
5.74700,-4.18477,-3.89481
5.76900,-4.18323,-3.89691
5.78100,-4.18438,-3.90047
5.80300,-4.18801,-3.90544
5.81528,-4.18889,-3.90694
5.83700,-4.19743,-3.90606
5.85900,-4.19383,-3.90691
5.87100,-4.19300,-3.90521
5.89300,-4.19311,-3.91014
5.90500,-4.19472,-3.91023
5.92700,-4.19641,-3.90932
5.93900,-4.19711,-3.91110
5.96100,-4.19586,-3.91244
5.98300,-4.19527,-3.91181
5.99500,-4.19870,-3.91151
6.01700,-4.19567,-3.91237
6.02900,-4.19556,-3.91530
6.05100,-4.20121,-3.91433
6.06300,-4.20492,-3.91048
6.08500,-4.20715,-3.91140
6.10700,-4.21291,-3.91288
6.11900,-4.21037,-3.91063
6.14100,-4.21561,-3.90552
6.15300,-4.21776,-3.90822
6.17500,-4.22100,-3.90269
6.18700,-4.22162,-3.90989
6.20900,-4.22762,-3.90450
6.22100,-4.22728,-3.90580
6.24300,-4.23068,-3.91243
6.26500,-4.24014,-3.91127
6.27700,-4.24107,-3.91455
6.29900,-4.24491,-3.91156
6.31100,-4.24326,-3.91530
6.33300,-4.24734,-3.92477
6.34500,-4.24783,-3.91782
6.36700,-4.25153,-3.93345
6.38900,-4.25716,-3.93275
6.40100,-4.26037,-3.93166
6.42300,-4.26288,-3.93530
6.43500,-4.26474,-3.93134
6.45700,-4.26339,-3.92890
6.46900,-4.26308,-3.93055
6.49100,-4.26811,-3.93042
6.51300,-4.26560,-3.92888
6.52500,-4.26542,-3.92959
6.54700,-4.27179,-3.92409
6.55900,-4.27240,-3.92690
6.58100,-4.28041,-3.92016
6.59300,-4.28385,-3.92225
6.61500,-4.27977,-3.92919
6.62700,-4.28139,-3.92876
6.64900,-4.28845,-3.92763
6.67100,-4.29258,-3.93273
6.68800,-4.29459,-3.93430
6.70000,-4.29601,-3.93741
6.72200,-4.29882,-3.94534
6.73400,-4.30068,-3.94448
6.75600,-4.29844,-3.94731
6.76800,-4.29968,-3.95009
6.79000,-4.29821,-3.94676
6.81200,-4.29515,-3.94990
6.82400,-4.29420,-3.94646
6.84600,-4.29444,-3.94565
6.85800,-4.29333,-3.94779
6.88000,-4.29713,-3.94011
6.89200,-4.29432,-3.94407
6.91400,-4.28523,-3.93770
6.93600,-4.28038,-3.93963
6.94800,-4.28183,-3.93901
6.97000,-4.28294,-3.93773
6.98200,-4.28470,-3.93718
7.00400,-4.28806,-3.93159
7.01600,-4.28828,-3.92981
7.03800,-4.28576,-3.92702
7.06000,-4.29504,-3.93137
7.07200,-4.29624,-3.92668
7.09400,-4.29036,-3.92306
7.10600,-4.28966,-3.92479
7.12800,-4.29199,-3.91699
7.14000,-4.29401,-3.91700
7.16200,-4.29056,-3.93104
7.17400,-4.29038,-3.93044
7.19600,-4.29626,-3.92391
7.21800,-4.29301,-3.92824
7.23000,-4.29081,-3.92479
7.25200,-4.29126,-3.92569
7.26400,-4.29413,-3.92631
7.28600,-4.29424,-3.91600
7.29800,-4.29322,-3.91659
7.32000,-4.29435,-3.91425
7.34200,-4.29819,-3.90963
7.35400,-4.30251,-3.91072
7.37600,-4.29600,-3.90714
7.38800,-4.29260,-3.90880
7.41000,-4.29371,-3.91073
7.42200,-4.29422,-3.90802
7.44400,-4.29894,-3.91114
7.46600,-4.30305,-3.90776
7.47800,-4.30500,-3.90786
7.50000,-4.30702,-3.91127
7.51200,-4.30849,-3.91118
7.53400,-4.30947,-3.90867
7.54600,-4.30428,-3.90915
7.56800,-4.30373,-3.90621
7.58000,-4.30346,-3.90842
7.60200,-4.31045,-3.90638
7.62400,-4.30908,-3.90694
7.63600,-4.30870,-3.90508
7.65800,-4.30998,-3.90680
7.67000,-4.31137,-3.90210
7.69200,-4.31255,-3.91024
7.70400,-4.31499,-3.90713
7.72600,-4.32289,-3.90679
7.74800,-4.32781,-3.90394
7.76000,-4.33129,-3.90326
7.78200,-4.32861,-3.90790
7.79400,-4.32858,-3.90586
7.81600,-4.32747,-3.90083
7.82800,-4.32772,-3.90485
7.85000,-4.33430,-3.89446
7.86200,-4.33146,-3.89562
7.88400,-4.33480,-3.90188
7.90600,-4.33888,-3.89951
7.91800,-4.34399,-3.89820
7.94000,-4.34530,-3.90245
7.95200,-4.34850,-3.89838
7.97400,-4.34844,-3.89461
7.98600,-4.34965,-3.89421
8.00800,-4.35044,-3.88546
8.03000,-4.35445,-3.89161
8.04200,-4.35100,-3.89026
8.06400,-4.34050,-3.89805
8.07600,-4.34055,-3.89723
8.09800,-4.34361,-3.89704
8.11000,-4.34406,-3.89294
8.13200,-4.34511,-3.89444
8.15400,-4.34803,-3.90161
8.16600,-4.35054,-3.90154
8.18800,-4.35454,-3.90173
8.20000,-4.35591,-3.90217
8.22200,-4.35566,-3.90546
8.23400,-4.35594,-3.90462
8.25600,-4.35554,-3.90161
8.26800,-4.35480,-3.90073
8.29000,-4.34971,-3.90724
8.31200,-4.35235,-3.90837
8.32400,-4.35147,-3.90609
8.34600,-4.35308,-3.90617
8.35800,-4.35295,-3.90542
8.38000,-4.35240,-3.91435
8.39200,-4.34900,-3.91889
8.41400,-4.35040,-3.92314
8.43600,-4.35052,-3.92878
8.44800,-4.34871,-3.92622
8.47000,-4.34582,-3.92881
8.48200,-4.34548,-3.93041
8.50400,-4.34756,-3.92668
8.51600,-4.34454,-3.92765
8.53800,-4.34444,-3.91712
8.56000,-4.34095,-3.91497
8.57200,-4.33618,-3.91913
8.59400,-4.34036,-3.90984
8.60600,-4.34083,-3.90966
8.62800,-4.34831,-3.91517
8.64000,-4.35079,-3.91413
8.66200,-4.34617,-3.91556
8.67400,-4.34403,-3.91566
8.70100,-4.33741,-3.91762
8.71300,-4.33583,-3.91825
8.73500,-4.33690,-3.91587
8.74700,-4.33721,-3.91498
8.76900,-4.34118,-3.92467
8.78100,-4.34060,-3.92515
8.80300,-4.34161,-3.92174
8.81500,-4.34122,-3.92399
8.83700,-4.34400,-3.91913
8.85900,-4.34660,-3.91133
8.87100,-4.34776,-3.91308
8.89300,-4.35089,-3.90247
8.90500,-4.34992,-3.90430
8.92700,-4.35972,-3.90333
8.93900,-4.36051,-3.90226
8.96100,-4.36783,-3.89881
8.98300,-4.36799,-3.89743
8.99500,-4.36885,-3.90262
9.01700,-4.36945,-3.89458
9.02900,-4.36982,-3.89929
9.05100,-4.37053,-3.90298
9.06300,-4.37011,-3.90317
9.08500,-4.36593,-3.91212
9.10700,-4.36551,-3.90979
9.11900,-4.37020,-3.90775
9.14100,-4.37001,-3.90599
9.15300,-4.37358,-3.90626
9.17500,-4.36307,-3.89761
9.18700,-4.35935,-3.89935
9.20900,-4.35665,-3.89945
9.22100,-4.35508,-3.89849
9.24300,-4.35669,-3.89877
9.26500,-4.35594,-3.89777
9.27700,-4.35407,-3.89887
9.29900,-4.35192,-3.89520
9.31100,-4.35388,-3.89480
9.33300,-4.35702,-3.89898
9.34500,-4.35439,-3.89749
9.36700,-4.36035,-3.89542
9.38900,-4.36240,-3.89868
9.40100,-4.36329,-3.90181
9.42300,-4.36406,-3.89762
9.43500,-4.36177,-3.89765
9.45700,-4.36268,-3.90222
9.46900,-4.36645,-3.90307
9.49100,-4.36439,-3.90388
9.50300,-4.36519,-3.90457
9.52500,-4.36295,-3.90478
9.54700,-4.36394,-3.91272
9.55900,-4.36117,-3.91378
9.58100,-4.35758,-3.90516
9.59300,-4.35489,-3.91355
9.61500,-4.35580,-3.90928
9.62700,-4.35475,-3.90953
9.64900,-4.36260,-3.90355
9.67100,-4.36686,-3.90405
9.68300,-4.36498,-3.90284
9.70500,-4.36511,-3.89961
9.71700,-4.36381,-3.89745
9.73900,-4.36396,-3.89451
9.75100,-4.36319,-3.89632
9.77300,-4.36618,-3.89302
9.79500,-4.37003,-3.89409
9.80700,-4.36981,-3.89361
9.82900,-4.36828,-3.89376
9.84100,-4.37091,-3.90047
9.86300,-4.37982,-3.89948
9.87500,-4.38165,-3.89994
9.89700,-4.38501,-3.89374
9.90900,-4.38610,-3.89710
9.93100,-4.38314,-3.89468
9.95300,-4.38363,-3.89478
9.96500,-4.38371,-3.89582
9.98700,-4.38750,-3.89981
9.99900,-4.38993,-3.90323
10.02100,-4.39125,-3.90526
10.03300,-4.39077,-3.90990
10.05500,-4.39480,-3.90864
10.07700,-4.39792,-3.90691
10.08900,-4.39853,-3.90874
10.11100,-4.40081,-3.90281
10.12300,-4.39897,-3.90017
10.14500,-4.40262,-3.90309
10.15700,-4.40222,-3.90438
10.17900,-4.40197,-3.90791
10.20100,-4.40207,-3.90499
10.21300,-4.40528,-3.91009
10.23500,-4.40365,-3.91273
10.24700,-4.40073,-3.90969
10.26900,-4.40532,-3.91053
10.28100,-4.40712,-3.90999
10.30300,-4.41438,-3.90312
10.31500,-4.41363,-3.90213
10.33700,-4.42185,-3.89536
10.35900,-4.41786,-3.89062
10.37100,-4.41888,-3.89130
10.39300,-4.41960,-3.89078
10.40500,-4.42218,-3.89417
10.42700,-4.42367,-3.89440
10.43900,-4.42089,-3.89590
10.46100,-4.42173,-3.89416
10.48300,-4.41744,-3.88893
10.49500,-4.42115,-3.88441
10.51700,-4.42089,-3.88317
10.52900,-4.42228,-3.88170
10.55100,-4.42714,-3.88516
10.56300,-4.42565,-3.88392
10.58500,-4.42522,-3.88495
10.59728,-4.42713,-3.88288
10.62000,-4.42301,-3.87541
10.64200,-4.42238,-3.87971
10.65400,-4.42295,-3.87746
10.67600,-4.42363,-3.87914
10.69300,-4.42132,-3.87642
10.70500,-4.42329,-3.87710
10.72700,-4.42571,-3.88170
10.73900,-4.42525,-3.88184
10.76100,-4.42815,-3.88395
10.78300,-4.42995,-3.88324
10.79500,-4.43112,-3.88148
10.81700,-4.43190,-3.88862
10.82900,-4.43030,-3.88701
10.85100,-4.42963,-3.88813
10.86300,-4.43279,-3.88724
10.88500,-4.43230,-3.88715
10.89700,-4.43121,-3.89427
10.91900,-4.43370,-3.89102
10.94100,-4.43388,-3.88383
10.95300,-4.43538,-3.88710
10.97500,-4.43557,-3.88536
10.98700,-4.43913,-3.88475
11.00900,-4.43260,-3.88024
11.02100,-4.42808,-3.88272
11.04300,-4.42750,-3.87921
11.06500,-4.42698,-3.88430
11.07700,-4.42911,-3.88441
11.09900,-4.42935,-3.89163
11.11100,-4.42846,-3.89133
11.13300,-4.43403,-3.89732
11.14500,-4.43478,-3.89983
11.16700,-4.43306,-3.90249
11.18900,-4.44161,-3.89628
11.20100,-4.43868,-3.89740
11.22300,-4.44021,-3.89761
11.23500,-4.43758,-3.89733
11.25700,-4.43763,-3.88628
11.26900,-4.43425,-3.89083
11.29100,-4.43338,-3.89797
11.30300,-4.43419,-3.89967
11.32500,-4.43189,-3.90121
11.34700,-4.42673,-3.89430
11.35900,-4.42664,-3.89541
11.38100,-4.42748,-3.89749
11.39300,-4.42624,-3.89825
11.41500,-4.42863,-3.89209
11.42700,-4.42823,-3.89181
11.44900,-4.42560,-3.89306
11.47100,-4.42681,-3.89450
11.48300,-4.42507,-3.89651
11.50500,-4.42584,-3.89428
11.51700,-4.42747,-3.89401
11.53900,-4.42419,-3.89464
11.55100,-4.42481,-3.89634
11.57300,-4.41898,-3.89141
11.59500,-4.41518,-3.89206
11.60700,-4.41671,-3.89105
11.62900,-4.41334,-3.89817
11.64100,-4.41212,-3.89908
11.66300,-4.41002,-3.89464
11.67500,-4.40626,-3.89587
11.69700,-4.41152,-3.90032
11.70900,-4.40806,-3.89919
11.73100,-4.41184,-3.90549
11.75300,-4.40705,-3.91312
11.76500,-4.40676,-3.90954
11.78700,-4.40938,-3.90723
11.79900,-4.40984,-3.91153
11.82100,-4.41492,-3.91498
11.83300,-4.41212,-3.91163
11.85500,-4.42091,-3.92059
11.87700,-4.42366,-3.91199
11.88900,-4.41911,-3.91630
11.91100,-4.42046,-3.92202
11.92300,-4.42272,-3.92526
11.94500,-4.42468,-3.92736
11.95700,-4.42371,-3.92391
11.97900,-4.42730,-3.92751
11.99128,-4.42628,-3.92824
12.01300,-4.43358,-3.91976
12.03500,-4.43515,-3.91951
12.04700,-4.43147,-3.91621
12.06900,-4.43313,-3.90732
12.08100,-4.43250,-3.90977
12.10300,-4.42625,-3.90493
12.11500,-4.42636,-3.90679
12.13700,-4.42083,-3.91139
12.15900,-4.42515,-3.90826
12.17100,-4.42416,-3.91294
12.19300,-4.42349,-3.91521
12.20500,-4.42269,-3.91477
12.22700,-4.41804,-3.91172
12.23900,-4.41792,-3.91000
12.26100,-4.41549,-3.90760
12.28300,-4.41520,-3.90799
12.29500,-4.41527,-3.90738
12.31700,-4.41902,-3.90890
12.32900,-4.41725,-3.91029
12.35100,-4.42055,-3.91433
12.36300,-4.42246,-3.91190
12.38500,-4.42182,-3.92003
12.39700,-4.42294,-3.91448
12.41900,-4.42065,-3.91321
12.44100,-4.41843,-3.91298
12.45300,-4.41652,-3.91420
12.47500,-4.41280,-3.90976
12.48700,-4.41269,-3.91213
12.50900,-4.40873,-3.91967
12.52100,-4.40940,-3.92155
12.54300,-4.41548,-3.91969
12.56500,-4.41158,-3.92102
12.57700,-4.41075,-3.92211
12.59900,-4.40939,-3.92170
12.61100,-4.40876,-3.92069
12.63300,-4.40288,-3.92260
12.64500,-4.39941,-3.92438
12.66700,-4.39732,-3.93460
12.69400,-4.40134,-3.92604
12.70600,-4.40157,-3.92679
12.71800,-4.40319,-3.92728
12.74000,-4.40555,-3.93133
12.75200,-4.40608,-3.93215
12.77400,-4.40914,-3.93093
12.78600,-4.40856,-3.93448
12.80800,-4.41407,-3.93633
12.83000,-4.41228,-3.93322
12.84200,-4.41233,-3.93345
12.86400,-4.40845,-3.94221
12.87600,-4.41334,-3.94202
12.89800,-4.41346,-3.93354
12.91000,-4.41025,-3.93659
12.93200,-4.41129,-3.92656
12.94400,-4.41097,-3.93179
12.96600,-4.40776,-3.93736
12.98800,-4.40635,-3.92656
13.00000,-4.40156,-3.92934
13.02200,-4.39635,-3.92833
13.03400,-4.39493,-3.92430
13.05600,-4.39264,-3.92597
13.06800,-4.39494,-3.92169
13.09000,-4.39653,-3.91908
13.11200,-4.39375,-3.91175
13.12400,-4.39190,-3.91250
13.14600,-4.39605,-3.91004
13.15800,-4.39207,-3.90703
13.18000,-4.39778,-3.90378
13.19200,-4.39513,-3.90497
13.21400,-4.38777,-3.90903
13.23600,-4.39141,-3.92011
13.24800,-4.39338,-3.91687
13.27000,-4.39817,-3.91933
13.28200,-4.39835,-3.92136
13.30400,-4.39958,-3.91626
13.31600,-4.39751,-3.91636
13.33800,-4.39372,-3.92464
13.35000,-4.39257,-3.92450
13.37200,-4.38785,-3.92616
13.39400,-4.39635,-3.93155
13.40600,-4.39565,-3.93127
13.42800,-4.39185,-3.92943
13.44000,-4.38966,-3.93403
13.46200,-4.39793,-3.93420
13.47400,-4.39589,-3.93248
13.49600,-4.39737,-3.93588
13.51800,-4.40157,-3.93066
13.53000,-4.40233,-3.92856
13.55200,-4.40301,-3.93178
13.56400,-4.40396,-3.93305
13.58600,-4.40067,-3.93012
13.59800,-4.40211,-3.93335
13.62000,-4.39575,-3.93795
13.64200,-4.39359,-3.93741
13.65400,-4.39256,-3.93898
13.67600,-4.38753,-3.93888
13.68800,-4.38741,-3.93662
13.71000,-4.38836,-3.93299
13.72200,-4.38693,-3.93222
13.74400,-4.38122,-3.93536
13.75600,-4.38085,-3.93247
13.77800,-4.37644,-3.93267
13.80000,-4.37568,-3.93114
13.81200,-4.37468,-3.93108
13.83400,-4.37954,-3.92400
13.84600,-4.37842,-3.92354
13.86800,-4.38205,-3.92214
13.88000,-4.38098,-3.91851
13.90200,-4.37862,-3.92012
13.92400,-4.37919,-3.92191
13.93600,-4.38055,-3.92210
13.95800,-4.37647,-3.92667
13.97000,-4.37593,-3.92245
13.99200,-4.37598,-3.92619
14.00400,-4.37898,-3.92412
14.02600,-4.38043,-3.91847
14.03800,-4.37692,-3.91607
14.06000,-4.37358,-3.91665
14.08200,-4.37458,-3.91826
14.09400,-4.37578,-3.91771
14.11600,-4.37593,-3.92342
14.12800,-4.37906,-3.92041
14.15000,-4.37952,-3.91474
14.16200,-4.38407,-3.91615
14.18400,-4.38380,-3.91575
14.20600,-4.38331,-3.91323
14.21800,-4.38142,-3.91228
14.24000,-4.38504,-3.91056
14.25200,-4.38656,-3.90977
14.27400,-4.39131,-3.91365
14.28600,-4.38926,-3.91417
14.30800,-4.39224,-3.91479
14.33000,-4.38628,-3.91916
14.34200,-4.38612,-3.91768
14.36400,-4.38663,-3.91926
14.37600,-4.38935,-3.91989
14.39800,-4.38826,-3.92112
14.41000,-4.38557,-3.91650
14.43200,-4.38697,-3.90790
14.44400,-4.38920,-3.90604
14.46600,-4.39507,-3.91344
14.48800,-4.39338,-3.91239
14.50000,-4.39048,-3.91111
14.52200,-4.38964,-3.92159
14.53400,-4.38898,-3.91849
14.55600,-4.39064,-3.91635
14.56800,-4.39122,-3.91776
14.59000,-4.39457,-3.91484
14.61200,-4.39248,-3.91150
14.62400,-4.38790,-3.91164
14.64600,-4.38696,-3.91388
14.65800,-4.38512,-3.91145
14.68000,-4.38819,-3.91889
14.69700,-4.38600,-3.92539
14.70900,-4.38466,-3.92135
14.73100,-4.38314,-3.92250
14.75300,-4.38001,-3.92147
14.76500,-4.38044,-3.92169
14.78700,-4.37790,-3.92376
14.79900,-4.38028,-3.92558
14.82100,-4.38432,-3.91541
14.83300,-4.38217,-3.91428
14.85500,-4.38868,-3.91785
14.87700,-4.38599,-3.91219
14.88900,-4.38448,-3.90936
14.91100,-4.39094,-3.90318
14.92300,-4.39062,-3.90078
14.94500,-4.39334,-3.89641
14.95700,-4.39552,-3.89934
14.97900,-4.39695,-3.89421
14.99100,-4.39967,-3.89404
15.01300,-4.39924,-3.89860
15.03500,-4.40076,-3.90489
15.04700,-4.40118,-3.90319
15.06900,-4.39248,-3.90741
15.08100,-4.39727,-3.90650
15.10300,-4.39454,-3.90533
15.11500,-4.39409,-3.90380
15.13700,-4.39852,-3.89958
15.15900,-4.39709,-3.89313
15.17100,-4.39848,-3.89613
15.19300,-4.40285,-3.89047
15.20500,-4.40215,-3.88689
15.22700,-4.40516,-3.89050
15.23900,-4.40637,-3.89048
15.26100,-4.40166,-3.89096
15.28300,-4.40252,-3.89227
15.29500,-4.40029,-3.89582
15.31700,-4.40840,-3.90334
15.32900,-4.41046,-3.89952
15.35100,-4.41335,-3.89525
15.36300,-4.41375,-3.89739
15.38500,-4.41283,-3.89044
15.39700,-4.41071,-3.88896
15.41900,-4.40596,-3.89540
15.44100,-4.40692,-3.89696
15.45300,-4.40674,-3.89597
15.47500,-4.40484,-3.90144
15.48700,-4.40304,-3.90306
15.50900,-4.39830,-3.89688
15.52100,-4.40172,-3.89761
15.54300,-4.40588,-3.89755
15.56500,-4.40770,-3.89745
15.57700,-4.40867,-3.89693
15.59900,-4.40868,-3.89537
15.61100,-4.40738,-3.89159
15.63300,-4.40715,-3.89710
15.64500,-4.40966,-3.89889
15.66700,-4.40370,-3.89397
15.67900,-4.40303,-3.89561
15.70100,-4.40551,-3.88955
15.72300,-4.40062,-3.90124
15.73500,-4.40083,-3.90193
15.75700,-4.40157,-3.89745
15.76900,-4.39861,-3.90041
15.79100,-4.39528,-3.90533
15.80300,-4.39603,-3.90082
15.82500,-4.39741,-3.90831
15.84700,-4.39334,-3.89818
15.85900,-4.39546,-3.89674
15.88100,-4.39960,-3.89719
15.89300,-4.40156,-3.89650
15.91500,-4.39908,-3.89442
15.92700,-4.39777,-3.89753
15.94900,-4.40050,-3.89157
15.97100,-4.40638,-3.88397
15.98300,-4.40697,-3.88427
16.00500,-4.40962,-3.88188
16.01700,-4.40965,-3.88116
16.03900,-4.40575,-3.88747
16.05100,-4.40721,-3.88621
16.07300,-4.40887,-3.88162
16.08500,-4.40791,-3.88322
16.10700,-4.40834,-3.87795
16.12900,-4.40400,-3.87403
16.14100,-4.40501,-3.87532
16.16300,-4.40465,-3.86555
16.17500,-4.40557,-3.86743
16.19700,-4.40496,-3.86549
16.20900,-4.40792,-3.86737
16.23100,-4.40625,-3.87166
16.25300,-4.40754,-3.87338
16.26500,-4.40931,-3.87337
16.28700,-4.40875,-3.87846
16.29900,-4.40850,-3.87622
16.32100,-4.40779,-3.88201
16.33300,-4.40613,-3.88435
16.35500,-4.41024,-3.87991
16.37700,-4.40941,-3.89013
16.38900,-4.41038,-3.89328
16.41100,-4.40883,-3.88948
16.42300,-4.40472,-3.89275
16.44500,-4.40363,-3.89180
16.45700,-4.40614,-3.89131
16.47900,-4.40898,-3.89686
16.49100,-4.40946,-3.90133
16.51300,-4.41564,-3.90138
16.53500,-4.41270,-3.90584
16.54700,-4.41441,-3.90289
16.56900,-4.42110,-3.90033
16.58100,-4.42289,-3.90517
16.60300,-4.41841,-3.89977
16.61500,-4.41674,-3.90096
16.63700,-4.41030,-3.89794
16.65900,-4.41240,-3.90259
16.67100,-4.40993,-3.90451
16.69800,-4.41936,-3.90038
16.71000,-4.42122,-3.90207
16.72200,-4.42042,-3.90149
16.74400,-4.42455,-3.89778
16.75600,-4.42157,-3.89760
16.77800,-4.42508,-3.89958
16.80000,-4.42792,-3.91363
16.81200,-4.42784,-3.91469
16.83400,-4.42402,-3.91296
16.84600,-4.42506,-3.91332
16.86800,-4.42230,-3.91550
16.88000,-4.42294,-3.91419
16.90200,-4.42931,-3.90900
16.92400,-4.42655,-3.91372
16.93600,-4.42511,-3.91079
16.95800,-4.42688,-3.91340
16.97000,-4.42878,-3.91686
16.99200,-4.43307,-3.90634
17.00400,-4.43395,-3.91148
17.02600,-4.43581,-3.91753
17.03800,-4.43727,-3.91209
17.06000,-4.43176,-3.91580
17.08200,-4.42602,-3.91556
17.09400,-4.42515,-3.91302
17.11600,-4.42683,-3.92049
17.12800,-4.43293,-3.91882
17.15000,-4.43977,-3.91820
17.16200,-4.44115,-3.92134
17.18400,-4.44415,-3.92025
17.20600,-4.44315,-3.92348
17.21800,-4.43840,-3.92297
17.24000,-4.44161,-3.91916
17.25200,-4.44070,-3.92201
17.27400,-4.44460,-3.91733
17.28600,-4.44094,-3.91799
17.30800,-4.44071,-3.91831
17.32028,-4.44409,-3.91757
17.34200,-4.43869,-3.91373
17.36400,-4.43543,-3.92102
17.37600,-4.43517,-3.91777
17.39800,-4.43591,-3.91408
17.41000,-4.43230,-3.91285
17.43200,-4.43393,-3.91365
17.44400,-4.42922,-3.91211
17.46600,-4.43037,-3.90772
17.48800,-4.43102,-3.90854
17.50000,-4.43022,-3.90968
17.52200,-4.42940,-3.90460
17.53400,-4.42983,-3.90141
17.55600,-4.42932,-3.90415
17.56800,-4.43106,-3.90114
17.59000,-4.42993,-3.89690
17.61200,-4.42474,-3.91187
17.62400,-4.42621,-3.91111
17.64600,-4.42873,-3.90795
17.65800,-4.42669,-3.90982
17.68000,-4.42556,-3.90920
17.69200,-4.42491,-3.90958
17.71400,-4.42698,-3.90661
17.72600,-4.42579,-3.90779
17.74800,-4.42780,-3.90954
17.77000,-4.42967,-3.91073
17.78200,-4.43327,-3.91089
17.80400,-4.42852,-3.91604
17.81600,-4.42791,-3.91449
17.83800,-4.42482,-3.92369
17.85000,-4.42503,-3.92180
17.87200,-4.42528,-3.91861
17.89400,-4.42490,-3.93023
17.90600,-4.42561,-3.93065
17.92800,-4.42891,-3.92295
17.94000,-4.43009,-3.92316
17.96200,-4.43240,-3.92869
17.97400,-4.43579,-3.92970
17.99600,-4.43551,-3.92993
18.01800,-4.43772,-3.92446
18.03000,-4.43655,-3.92718
18.05200,-4.44422,-3.92236
18.06400,-4.44615,-3.92281
18.08600,-4.44160,-3.92591
18.09800,-4.44188,-3.92416
18.12000,-4.44572,-3.92448
18.13200,-4.44560,-3.92824
18.15400,-4.44420,-3.92442
18.17600,-4.44431,-3.91402
18.18800,-4.44442,-3.91081
18.21000,-4.44080,-3.91201
18.22200,-4.44244,-3.90834
18.24400,-4.44246,-3.91075
18.25600,-4.44449,-3.91348
18.27800,-4.44229,-3.91395
18.30000,-4.44361,-3.90627
18.31200,-4.44381,-3.91133
18.33400,-4.44615,-3.90609
18.34600,-4.44259,-3.90567
18.36800,-4.42968,-3.91634
18.38000,-4.43014,-3.91421
18.40200,-4.42331,-3.91747
18.42400,-4.41962,-3.92369
18.43600,-4.42312,-3.92219
18.45800,-4.43116,-3.92380
18.47000,-4.43070,-3.92291
18.49200,-4.42153,-3.91679
18.50400,-4.42180,-3.91636
18.52600,-4.42507,-3.92186
18.53800,-4.42460,-3.91823
18.56000,-4.42803,-3.91483
18.58200,-4.43310,-3.91773
18.59400,-4.43080,-3.91727
18.61600,-4.43108,-3.91838
18.62800,-4.43066,-3.92136
18.65000,-4.42289,-3.91168
18.66200,-4.42010,-3.91296
18.68400,-4.41901,-3.91626
18.70100,-4.42538,-3.91099
18.72300,-4.41751,-3.90909
18.73500,-4.41676,-3.90912
18.75700,-4.42221,-3.90632
18.76900,-4.41920,-3.90624
18.79100,-4.41833,-3.90158
18.80300,-4.41456,-3.90502
18.82500,-4.40622,-3.90757
18.84700,-4.40782,-3.90494
18.85900,-4.40984,-3.90907
18.88100,-4.40834,-3.90938
18.89300,-4.40556,-3.91268
18.91500,-4.40500,-3.91879
18.92700,-4.40703,-3.91848
18.94900,-4.41516,-3.91676
18.97100,-4.41208,-3.92004
18.98300,-4.41385,-3.91909
19.00500,-4.41622,-3.92334
19.01700,-4.41187,-3.92132
19.03900,-4.41270,-3.92116
19.05100,-4.41131,-3.92461
19.07300,-4.41314,-3.92383
19.08500,-4.40987,-3.92484
19.10700,-4.40908,-3.92470
19.12900,-4.40989,-3.93096
19.14100,-4.40802,-3.92913
19.16300,-4.41086,-3.92523
19.17500,-4.40984,-3.92622
19.19700,-4.40906,-3.92551
19.20900,-4.40752,-3.92461
19.23100,-4.40443,-3.92278
19.25300,-4.40952,-3.91932
19.26500,-4.40970,-3.91937
19.28700,-4.40676,-3.92095
19.29900,-4.40720,-3.91713
19.32100,-4.41097,-3.91810
19.33300,-4.41414,-3.91628
19.35500,-4.40713,-3.91032
19.36700,-4.41046,-3.90968
19.38900,-4.40927,-3.90983
19.41100,-4.40362,-3.91209
19.42300,-4.40246,-3.90340
19.44500,-4.40091,-3.90875
19.45700,-4.39860,-3.90548
19.47900,-4.39623,-3.89485
19.49100,-4.39404,-3.90054
19.51300,-4.39622,-3.89185
19.53500,-4.39554,-3.88819
19.54700,-4.39249,-3.88559
19.56900,-4.39282,-3.88467
19.58100,-4.39559,-3.88460
19.60300,-4.39445,-3.89479
19.61500,-4.39428,-3.89255
19.63700,-4.38931,-3.89480
19.65900,-4.39504,-3.89386
19.67100,-4.39703,-3.88991
19.69300,-4.39733,-3.89561
19.70500,-4.39979,-3.89716
19.72700,-4.38786,-3.89847
19.73900,-4.38764,-3.90116
19.76100,-4.38073,-3.89628
19.77300,-4.38065,-3.89353
19.79500,-4.37563,-3.90284
19.81700,-4.37688,-3.91032
19.82900,-4.37989,-3.90799
19.85100,-4.37886,-3.90323
19.86300,-4.37508,-3.90337
19.88500,-4.37340,-3.90676
19.89700,-4.37302,-3.90611
19.91900,-4.37921,-3.90856
19.94100,-4.37789,-3.90675
19.95300,-4.37708,-3.90668
19.97500,-4.37875,-3.90822
19.98700,-4.38022,-3.91070
20.00900,-4.38008,-3.91023
20.02100,-4.37735,-3.90641
20.04300,-4.37909,-3.91758
20.06500,-4.38578,-3.90643
20.07700,-4.38799,-3.90614
20.09900,-4.38223,-3.90981
20.11100,-4.38220,-3.90321
20.13300,-4.38322,-3.89818
20.14500,-4.38335,-3.89730
20.16700,-4.38450,-3.88948
20.17900,-4.38306,-3.89039
20.20100,-4.38678,-3.89339
20.22300,-4.38881,-3.88734
20.23500,-4.38984,-3.88599
20.25700,-4.39802,-3.88692
20.26900,-4.39832,-3.88604
20.29100,-4.40167,-3.89180
20.30300,-4.40339,-3.89534
20.32500,-4.40754,-3.89853
20.34700,-4.40786,-3.90623
20.35900,-4.40617,-3.90817
20.38100,-4.40241,-3.91580
20.39300,-4.40296,-3.92088
20.41500,-4.40055,-3.91779
20.42700,-4.39912,-3.92469
20.44900,-4.39957,-3.92695
20.46100,-4.39997,-3.92635
20.48300,-4.40474,-3.92272
20.50500,-4.40276,-3.92017
20.51700,-4.40584,-3.92148
20.53900,-4.41177,-3.92029
20.55100,-4.41679,-3.91903
20.57300,-4.40981,-3.92483
20.58500,-4.40911,-3.92314
20.60700,-4.41358,-3.92541
20.62900,-4.40629,-3.93256
20.64100,-4.40401,-3.92636
20.66300,-4.40919,-3.93305
20.67500,-4.40970,-3.94054
20.70200,-4.40551,-3.94130
20.71400,-4.40745,-3.94136
20.72600,-4.40801,-3.94338
20.74800,-4.40832,-3.93837
20.77000,-4.40123,-3.94304
20.78200,-4.40145,-3.94184
20.80400,-4.40688,-3.94070
20.81600,-4.40536,-3.93711
20.83800,-4.40688,-3.93872
20.85000,-4.40331,-3.93827
20.87200,-4.40129,-3.93523
20.89400,-4.40188,-3.93248
20.90600,-4.40248,-3.93262
20.92800,-4.39739,-3.93189
20.94000,-4.39841,-3.92915
20.96200,-4.39727,-3.93313
20.97400,-4.39608,-3.92807
20.99600,-4.39612,-3.91649
21.00828,-4.39692,-3.91635
21.03100,-4.40154,-3.91886
21.05300,-4.40210,-3.92259
21.06500,-4.40141,-3.92805
21.08700,-4.40400,-3.91507
21.09900,-4.40403,-3.91361
21.12100,-4.40505,-3.91655
21.13300,-4.40551,-3.91479
21.15500,-4.40344,-3.92464
21.16700,-4.40098,-3.92707
21.18900,-4.39571,-3.91960
21.21100,-4.40586,-3.92196
21.22300,-4.40869,-3.91897
21.24500,-4.40913,-3.92205
21.25700,-4.40723,-3.92138
21.27900,-4.41053,-3.91337
21.29100,-4.41095,-3.91272
21.31300,-4.40421,-3.91713
21.33500,-4.40702,-3.90996
21.34700,-4.40544,-3.91068
21.36900,-4.40160,-3.91545
21.38100,-4.39855,-3.91395
21.40300,-4.39704,-3.91575
21.41500,-4.39119,-3.91791
21.43700,-4.39408,-3.91612
21.45900,-4.39541,-3.91509
21.47100,-4.39302,-3.91523
21.49300,-4.39259,-3.91079
21.50500,-4.39467,-3.91365
21.52700,-4.39278,-3.90665
21.53900,-4.39346,-3.90349
21.56100,-4.39142,-3.90868
21.57300,-4.39105,-3.90347
21.59500,-4.39335,-3.90722
21.61700,-4.39475,-3.91109
21.62900,-4.39475,-3.91150
21.65100,-4.38947,-3.92237
21.66300,-4.39105,-3.92239
21.68500,-4.39431,-3.91612
21.69700,-4.39269,-3.92074
21.71900,-4.39114,-3.92208
21.74100,-4.38861,-3.91668
21.75300,-4.38856,-3.91831
21.77500,-4.38642,-3.92248
21.78700,-4.38755,-3.91836
21.80900,-4.38419,-3.92545
21.82100,-4.38535,-3.92430
21.84300,-4.38246,-3.92102
21.85528,-4.37879,-3.92027
21.87700,-4.37955,-3.92574
21.89900,-4.37582,-3.92753
21.91100,-4.37648,-3.92606
21.93300,-4.37174,-3.92311
21.94500,-4.37441,-3.92485
21.96700,-4.37293,-3.91858
21.97900,-4.37329,-3.91563
22.00100,-4.37492,-3.91976
22.02300,-4.37258,-3.90749
22.03500,-4.37344,-3.90914
22.05700,-4.37426,-3.91512
22.06900,-4.37404,-3.91273
22.09100,-4.36724,-3.91451
22.10300,-4.36329,-3.91650
22.12500,-4.35570,-3.92338
22.14700,-4.35974,-3.92243
22.15900,-4.35720,-3.92073
22.18100,-4.35242,-3.92540
22.19300,-4.35031,-3.92595
22.21500,-4.34819,-3.91604
22.22700,-4.34565,-3.91828
22.24900,-4.34596,-3.91983
22.26100,-4.34918,-3.91327
22.28300,-4.34833,-3.90821
22.30500,-4.34747,-3.90564
22.31700,-4.34583,-3.89971
22.33900,-4.35352,-3.90109
22.35100,-4.35272,-3.89981
22.37300,-4.35749,-3.89712
22.38500,-4.35895,-3.89603
22.40700,-4.35808,-3.89711
22.42900,-4.36470,-3.90110
22.44100,-4.36617,-3.90268
22.46300,-4.36547,-3.89696
22.47500,-4.36293,-3.90082
22.49700,-4.36379,-3.90328
22.50900,-4.36434,-3.89770
22.53100,-4.36336,-3.91570
22.55300,-4.36564,-3.91410
22.56500,-4.36386,-3.91236
22.58700,-4.35894,-3.91947
22.59900,-4.36199,-3.91605
22.62100,-4.36386,-3.91352
22.63300,-4.36079,-3.91769
22.65500,-4.35770,-3.90343
22.66700,-4.35840,-3.90435
22.68900,-4.36127,-3.90653
22.70600,-4.36332,-3.89600
22.72800,-4.36394,-3.89083
22.74000,-4.36215,-3.88716
22.76200,-4.36468,-3.88119
22.77400,-4.36415,-3.88331
22.79600,-4.36731,-3.88024
22.80800,-4.37199,-3.87968
22.83000,-4.37057,-3.87804
22.85200,-4.37576,-3.87735
22.86400,-4.37523,-3.87628
22.88600,-4.36692,-3.88069
22.89800,-4.36768,-3.87679
22.92000,-4.36501,-3.87435
22.93200,-4.36085,-3.87781
22.95400,-4.36668,-3.87411
22.97600,-4.36273,-3.87316
22.98800,-4.36416,-3.87267
23.01000,-4.36115,-3.87138
23.02200,-4.36226,-3.87858
23.04400,-4.36898,-3.87876
23.05600,-4.36897,-3.87805
23.07800,-4.37355,-3.88026
23.10000,-4.37376,-3.88059
23.11200,-4.37236,-3.87831
23.13400,-4.37883,-3.88479
23.14600,-4.37893,-3.88215
23.16800,-4.38679,-3.88941
23.18000,-4.38646,-3.88770
23.20200,-4.38430,-3.88456
23.21400,-4.38620,-3.88500
23.23600,-4.38642,-3.88050
23.25800,-4.38985,-3.88626
23.27000,-4.38705,-3.89094
23.29200,-4.38649,-3.89274
23.30400,-4.38963,-3.89608
23.32600,-4.39042,-3.88726
23.33800,-4.38971,-3.88690
23.36000,-4.40696,-3.88483
23.38200,-4.40846,-3.88459
23.39400,-4.40985,-3.88435
23.41600,-4.41258,-3.88192
23.42800,-4.41296,-3.88117
23.45000,-4.40989,-3.88067
23.46200,-4.41036,-3.88269
23.48400,-4.41091,-3.88423
23.49628,-4.40857,-3.87668
23.51800,-4.40661,-3.87864
23.54000,-4.40778,-3.87852
23.55200,-4.40744,-3.87838
23.57400,-4.40364,-3.87998
23.58600,-4.40703,-3.87559
23.60800,-4.40843,-3.87734
23.62000,-4.40794,-3.87920
23.64200,-4.40075,-3.87542
23.66400,-4.39567,-3.87592
23.67600,-4.39814,-3.87336
23.69800,-4.39592,-3.87665
23.71000,-4.39170,-3.87627
23.73200,-4.39577,-3.87258
23.74400,-4.39903,-3.87361
23.76600,-4.39628,-3.87893
23.78800,-4.39859,-3.88330
23.80000,-4.39567,-3.88432
23.82200,-4.39587,-3.88400
23.83400,-4.39899,-3.87980
23.85600,-4.39820,-3.87778
23.86800,-4.40301,-3.88170
23.89000,-4.39822,-3.88268
23.90200,-4.40046,-3.88552
23.92400,-4.40488,-3.88342
23.94600,-4.40628,-3.88470
23.95800,-4.40258,-3.88585
23.98000,-4.40446,-3.88902
23.99200,-4.40254,-3.88863
24.01400,-4.39515,-3.88758
24.02600,-4.39643,-3.88633
24.04800,-4.40228,-3.88911
24.07000,-4.40448,-3.88545
24.08200,-4.40431,-3.88396
24.10400,-4.40650,-3.88710
24.11600,-4.40709,-3.88241
24.13800,-4.40857,-3.88544
24.15000,-4.40976,-3.88800
24.17200,-4.41338,-3.87988
24.19400,-4.40994,-3.88368
24.20600,-4.40891,-3.87952
24.22800,-4.41173,-3.87145
24.24000,-4.40959,-3.87460
24.26200,-4.42283,-3.88085
24.27400,-4.42427,-3.88273
24.29600,-4.42735,-3.88807
24.30800,-4.42256,-3.88668
24.33000,-4.42332,-3.88943
24.35200,-4.42280,-3.89378
24.36400,-4.42199,-3.89566
24.38600,-4.42425,-3.89673
24.39800,-4.42368,-3.89653
24.42000,-4.42545,-3.89886
24.43200,-4.42889,-3.89899
24.45400,-4.42764,-3.89972
24.47600,-4.42820,-3.89792
24.48800,-4.42864,-3.89526
24.51000,-4.43274,-3.88495
24.52200,-4.43097,-3.89222
24.54400,-4.43066,-3.88964
24.55600,-4.42978,-3.88768
24.57800,-4.43080,-3.89652
24.60000,-4.43501,-3.89233
24.61200,-4.43718,-3.89424
24.63400,-4.43462,-3.89953
24.64600,-4.42962,-3.89730
24.66800,-4.43751,-3.90306
24.68000,-4.43484,-3.90172
24.70700,-4.42967,-3.90657
24.71900,-4.42685,-3.90343
24.74100,-4.43248,-3.90865
24.75300,-4.43222,-3.91091
24.77500,-4.43630,-3.91133
24.78700,-4.43782,-3.91584
24.80900,-4.44543,-3.91260
24.82100,-4.44527,-3.91325
24.84300,-4.44269,-3.91009
24.85500,-4.44412,-3.90764
24.87700,-4.44619,-3.90539
24.89900,-4.44166,-3.90726
24.91100,-4.44470,-3.90974
24.93300,-4.44617,-3.91413
24.94500,-4.44127,-3.91552
24.96700,-4.43868,-3.91851
24.97900,-4.43966,-3.91994
25.00100,-4.44563,-3.92231
25.02300,-4.44517,-3.91932
25.03500,-4.44678,-3.91870
25.05700,-4.44420,-3.92276
25.06900,-4.44468,-3.92006
25.09100,-4.43892,-3.92018
25.10300,-4.43546,-3.92178
25.12500,-4.43883,-3.92808
25.14700,-4.43970,-3.92986
25.15900,-4.43966,-3.93289
25.18100,-4.43928,-3.93780
25.19300,-4.43997,-3.93899
25.21500,-4.43779,-3.93987
25.22700,-4.43736,-3.93596
25.24900,-4.44689,-3.93471
25.26100,-4.44753,-3.93689
25.28300,-4.43900,-3.93621
25.30500,-4.44327,-3.93433
25.31700,-4.44273,-3.94062
25.33900,-4.44278,-3.94057
25.35100,-4.44393,-3.93736
25.37300,-4.44554,-3.94404
25.38500,-4.44735,-3.94062
25.40700,-4.44993,-3.94625
25.42900,-4.45491,-3.94790
25.44100,-4.45378,-3.94776
25.46300,-4.44874,-3.93781
25.47500,-4.44806,-3.93796
25.49700,-4.44812,-3.93820
25.50900,-4.44949,-3.93675
25.53100,-4.45216,-3.93620
25.54300,-4.45281,-3.93927
25.56500,-4.45361,-3.93150
25.58700,-4.45312,-3.93200
25.59900,-4.45243,-3.93193
25.62100,-4.45321,-3.92866
25.63300,-4.45422,-3.92902
25.65500,-4.46040,-3.92168
25.66700,-4.46138,-3.92615
25.68900,-4.46069,-3.91665
25.71100,-4.45728,-3.91993
25.72300,-4.45748,-3.91940
25.74500,-4.45530,-3.90919
25.75700,-4.45490,-3.90913
25.77900,-4.45712,-3.90477
25.79100,-4.45777,-3.90645
25.81300,-4.46028,-3.90432
25.83500,-4.45564,-3.90465
25.84700,-4.45563,-3.90854
25.86900,-4.46106,-3.90457
25.88100,-4.46215,-3.90372
25.90300,-4.47030,-3.90538
25.91500,-4.47079,-3.90565
25.93700,-4.47128,-3.90848
25.94900,-4.47234,-3.90947
25.97100,-4.47130,-3.91300
25.99300,-4.46564,-3.91326
26.00500,-4.46524,-3.91385
26.02700,-4.46724,-3.92162
26.03900,-4.46783,-3.92229
26.06100,-4.45829,-3.92285
26.07300,-4.45681,-3.92396
26.09500,-4.46067,-3.92735
26.11700,-4.46393,-3.92698
26.12900,-4.46370,-3.92507
26.15100,-4.46065,-3.92499
26.16300,-4.45654,-3.92377
26.18500,-4.46099,-3.92895
26.19700,-4.46020,-3.92597
26.21900,-4.46450,-3.92660
26.24100,-4.46925,-3.92256
26.25300,-4.46839,-3.92308
26.27500,-4.46468,-3.91823
26.28700,-4.46369,-3.91935
26.30900,-4.47089,-3.91944
26.32100,-4.47001,-3.92027
26.34300,-4.47521,-3.92512
26.35500,-4.47271,-3.92464
26.37700,-4.47411,-3.92149
26.39900,-4.47042,-3.92028
26.41100,-4.47097,-3.91609
26.43300,-4.47392,-3.92146
26.44500,-4.47192,-3.92532
26.46700,-4.47069,-3.91869
26.47900,-4.47215,-3.91857
26.50100,-4.46587,-3.92660
26.52300,-4.47218,-3.92214
26.53500,-4.47044,-3.92328
26.55700,-4.46706,-3.92296
26.56900,-4.46841,-3.92278
26.59100,-4.46852,-3.92465
26.60300,-4.46358,-3.91902
26.62500,-4.46116,-3.92138
26.63728,-4.46018,-3.92317
26.65900,-4.46234,-3.91136
26.68100,-4.46059,-3.92070
26.69300,-4.45782,-3.91688
26.71000,-4.45367,-3.91416
26.73200,-4.45316,-3.91694
26.74400,-4.45325,-3.91512
26.76600,-4.44733,-3.91000
26.78800,-4.43897,-3.91701
26.80000,-4.44243,-3.91674
26.82200,-4.44216,-3.91714
26.83400,-4.44446,-3.91679
26.85600,-4.44284,-3.91378
26.86800,-4.44185,-3.91679
26.89000,-4.43967,-3.91562
26.90200,-4.44378,-3.91479
26.92400,-4.44300,-3.91708
26.94600,-4.44444,-3.92047
26.95800,-4.44324,-3.92029
26.98000,-4.44080,-3.91820
26.99200,-4.44085,-3.91773
27.01400,-4.44240,-3.91524
27.02600,-4.44381,-3.91607
27.04800,-4.43952,-3.90632
27.07000,-4.43726,-3.90638
27.08200,-4.43598,-3.90510
27.10400,-4.43208,-3.90712
27.11600,-4.43363,-3.90687
27.13800,-4.43228,-3.90276
27.15000,-4.42915,-3.90411
27.17200,-4.43089,-3.90324
27.18428,-4.42748,-3.89877
27.20600,-4.42615,-3.89327
27.22800,-4.42425,-3.90028
27.24000,-4.42272,-3.90055
27.26200,-4.42607,-3.89976
27.27400,-4.42277,-3.90445
27.29600,-4.42348,-3.89873
27.30800,-4.41828,-3.90250
27.33000,-4.40759,-3.89583
27.35200,-4.40744,-3.88988
27.36400,-4.40477,-3.89394
27.38600,-4.39824,-3.89369
27.39800,-4.40006,-3.88662
27.42000,-4.40143,-3.89509
27.43200,-4.40179,-3.89724
27.45400,-4.39907,-3.89570
27.47600,-4.41042,-3.89878
27.48800,-4.40915,-3.89778
27.51000,-4.41332,-3.89996
27.52200,-4.41286,-3.90218
27.54400,-4.41673,-3.90336
27.55600,-4.41655,-3.90714
27.57800,-4.41170,-3.90541
27.59000,-4.41335,-3.90128
27.61200,-4.41531,-3.90811
27.63400,-4.41513,-3.90948
27.64600,-4.41432,-3.91326
27.66800,-4.42134,-3.91297
27.68000,-4.42184,-3.91324
27.70200,-4.41953,-3.91723
27.71400,-4.41990,-3.91839
27.73600,-4.42075,-3.91460
27.75800,-4.41912,-3.91252
27.77000,-4.41566,-3.91397
27.79200,-4.42328,-3.91007
27.80400,-4.42246,-3.91061
27.82600,-4.42302,-3.91497
27.83800,-4.42366,-3.91501
27.86000,-4.42234,-3.91953
27.88200,-4.41772,-3.92464
27.89400,-4.42041,-3.92247
27.91600,-4.42067,-3.91974
27.92800,-4.42096,-3.92258
27.95000,-4.41979,-3.92685
27.96200,-4.42177,-3.92688
27.98400,-4.42100,-3.92619
27.99600,-4.41530,-3.92505
28.01800,-4.41417,-3.92518
28.04000,-4.40911,-3.92229
28.05200,-4.41317,-3.92579
28.07400,-4.40619,-3.92403
28.08600,-4.40845,-3.92063
28.10800,-4.40358,-3.92265
28.12000,-4.40221,-3.92578
28.14200,-4.40340,-3.92054
28.16400,-4.40106,-3.92431
28.17600,-4.40139,-3.92414
28.19800,-4.40477,-3.92080
28.21000,-4.40301,-3.91833
28.23200,-4.40119,-3.91426
28.24400,-4.40208,-3.91659
28.26600,-4.40192,-3.91844
28.27828,-4.40357,-3.91716
28.30000,-4.40025,-3.92224
28.32200,-4.40601,-3.91682
28.33400,-4.40880,-3.91263
28.35600,-4.40614,-3.91443
28.36800,-4.40381,-3.91516
28.39000,-4.40601,-3.91050
28.40200,-4.40617,-3.90941
28.42400,-4.40632,-3.91144
28.44600,-4.40370,-3.90022
28.45800,-4.40203,-3.90329
28.48000,-4.40466,-3.90630
28.49200,-4.40176,-3.90524
28.51400,-4.39959,-3.90654
28.52600,-4.40259,-3.90097
28.54800,-4.40981,-3.91055
28.57000,-4.40830,-3.91037
28.58200,-4.41241,-3.90754
28.60400,-4.41609,-3.91878
28.61600,-4.41615,-3.91885
28.63800,-4.42513,-3.91235
28.65000,-4.42519,-3.91433
28.67200,-4.43494,-3.92022
28.68400,-4.43251,-3.92022
28.71100,-4.43503,-3.93296
28.72300,-4.43130,-3.93536
28.74500,-4.43815,-3.93736
28.75700,-4.43572,-3.93511
28.77900,-4.43406,-3.93387
28.79100,-4.43195,-3.93013
28.81300,-4.42921,-3.92547
28.83500,-4.42430,-3.92557
28.84700,-4.42269,-3.92368
28.86900,-4.42437,-3.91679
28.88100,-4.42532,-3.91425
28.90300,-4.42643,-3.91555
28.91500,-4.42567,-3.91743
28.93700,-4.42340,-3.92300
28.94900,-4.42573,-3.92128
28.97100,-4.42410,-3.92570
28.99300,-4.42700,-3.92318
29.00500,-4.42611,-3.92321
29.02700,-4.42262,-3.92830
29.03900,-4.42192,-3.93030
29.06100,-4.42715,-3.93805
29.07300,-4.42577,-3.94106
29.09500,-4.42355,-3.93359
29.11700,-4.42680,-3.92852
29.12900,-4.42478,-3.93243
29.15100,-4.43262,-3.92799
29.16300,-4.43200,-3.92427
29.18500,-4.42901,-3.92467
29.19700,-4.43138,-3.92304
29.21900,-4.42737,-3.92717
29.23100,-4.42706,-3.92376
29.25300,-4.42808,-3.93552
29.27500,-4.43144,-3.93417
29.28700,-4.42709,-3.93033
29.30900,-4.43083,-3.93332
29.32100,-4.42827,-3.92895
29.34300,-4.42699,-3.93100
29.35500,-4.42662,-3.92570
29.37700,-4.41881,-3.92264
29.39900,-4.42718,-3.92560
29.41100,-4.42826,-3.92442
29.43300,-4.42353,-3.92519
29.44500,-4.42737,-3.92376
29.46700,-4.43187,-3.91998
29.47900,-4.43074,-3.92046
29.50100,-4.43493,-3.92463
29.52300,-4.43110,-3.92299
29.53500,-4.43177,-3.92442
29.55700,-4.43196,-3.91813
29.56900,-4.42879,-3.91902
29.59100,-4.43113,-3.92587
29.60300,-4.42887,-3.92540
29.62500,-4.42828,-3.92629
29.63700,-4.42689,-3.92587
29.65900,-4.42855,-3.92042
29.68100,-4.42906,-3.92460
29.69300,-4.42772,-3.92489
29.71500,-4.43550,-3.92264
29.72700,-4.43363,-3.92242
29.74900,-4.43332,-3.91585
29.76100,-4.43069,-3.91795
29.78300,-4.42800,-3.91687
29.80500,-4.42676,-3.91750
29.81700,-4.42835,-3.91800
29.83900,-4.43122,-3.91883
29.85100,-4.43099,-3.92063
29.87300,-4.43326,-3.92098
29.88500,-4.43454,-3.91655
29.90700,-4.42846,-3.91785
29.92900,-4.42131,-3.91958
29.94100,-4.42142,-3.91565
29.96300,-4.43144,-3.92171
29.97500,-4.43181,-3.92486
29.99700,-4.43538,-3.92406
30.00900,-4.43603,-3.92241
30.03100,-4.43841,-3.91698
30.04300,-4.44185,-3.91605
30.06500,-4.44411,-3.91713
30.08700,-4.43804,-3.91732
30.09900,-4.43798,-3.91704
30.12100,-4.44008,-3.91423
30.13300,-4.43933,-3.91815
30.15500,-4.43724,-3.92137
30.16700,-4.44039,-3.91870
30.18900,-4.44157,-3.91960
30.21100,-4.44376,-3.92255
30.22300,-4.44274,-3.91991
30.24500,-4.44562,-3.91611
30.25700,-4.44728,-3.91272
30.27900,-4.44259,-3.91359
30.29100,-4.44091,-3.91195
30.31300,-4.43952,-3.91935
30.32500,-4.43982,-3.91757
30.34700,-4.43517,-3.91825
30.36900,-4.43247,-3.91605
30.38100,-4.43037,-3.91470
30.40300,-4.43490,-3.91641
30.41500,-4.43925,-3.91453
30.43700,-4.43810,-3.91052
30.44900,-4.43744,-3.91439
30.47100,-4.44659,-3.91754
30.49300,-4.44206,-3.91989
30.50500,-4.44294,-3.91860
30.52700,-4.43884,-3.91974
30.53900,-4.43509,-3.92421
30.56100,-4.43398,-3.92206
30.57300,-4.43184,-3.92262
30.59500,-4.42817,-3.92406
30.61700,-4.42496,-3.91832
30.62900,-4.42361,-3.91787
30.65100,-4.42187,-3.92077
30.66300,-4.42346,-3.91423
30.68500,-4.42376,-3.91367
30.69700,-4.42113,-3.91591
30.71400,-4.42761,-3.90649
30.73600,-4.42589,-3.91182
30.75800,-4.43023,-3.91781
30.77000,-4.43225,-3.91334
30.79200,-4.43650,-3.90895
30.80400,-4.43627,-3.90962
30.82600,-4.43517,-3.92105
30.83800,-4.43473,-3.92212
30.86000,-4.43457,-3.92070
30.87200,-4.43107,-3.92790
30.89400,-4.43337,-3.92640
30.91600,-4.43574,-3.92038
30.92800,-4.43069,-3.92185
30.95000,-4.42645,-3.91828
30.96200,-4.42551,-3.91751
30.98400,-4.41900,-3.91805
30.99600,-4.42184,-3.91662
31.01800,-4.41865,-3.91435
31.04000,-4.40817,-3.91583
31.05200,-4.41297,-3.91442
31.07400,-4.40787,-3.91484
31.08600,-4.40956,-3.91819
31.10800,-4.41295,-3.91642
31.12000,-4.41031,-3.91740
31.14200,-4.40997,-3.91620
31.16400,-4.40646,-3.92053
31.17600,-4.40882,-3.91907
31.19800,-4.40948,-3.92025
31.21000,-4.41043,-3.92397
31.23200,-4.41513,-3.92189
31.24400,-4.41327,-3.91814
31.26600,-4.41200,-3.92320
31.27800,-4.41259,-3.92097
31.30000,-4.40529,-3.92398
31.32200,-4.40455,-3.93128
31.33400,-4.40457,-3.92424
31.35600,-4.40241,-3.91822
31.36800,-4.40308,-3.92300
31.39000,-4.40572,-3.91499
31.40200,-4.40332,-3.91156
31.42400,-4.40363,-3.92313
31.44600,-4.40889,-3.91371
31.45800,-4.40699,-3.91411
31.48000,-4.40421,-3.92363
31.49200,-4.40629,-3.91992
31.51400,-4.40211,-3.91980
31.52600,-4.40140,-3.91692
31.54800,-4.39993,-3.90886
31.57000,-4.38991,-3.91323
31.58200,-4.39168,-3.91087
31.60400,-4.39514,-3.91325
31.61600,-4.39515,-3.91809
31.63800,-4.40132,-3.91105
31.65000,-4.39696,-3.91617
31.67200,-4.39190,-3.91036
31.68400,-4.39505,-3.90537
31.70600,-4.39894,-3.91144
31.72800,-4.40608,-3.90643
31.74000,-4.40535,-3.90521
31.76200,-4.40006,-3.90975
31.77400,-4.40138,-3.90338
31.79600,-4.39734,-3.90961
31.80800,-4.39782,-3.91220
31.83000,-4.40122,-3.90413
31.85200,-4.40713,-3.90699
31.86400,-4.40508,-3.90822
31.88600,-4.40771,-3.90848
31.89800,-4.40604,-3.91273
31.92000,-4.40811,-3.90776
31.93200,-4.40516,-3.90458
31.95400,-4.40810,-3.91109
31.96628,-4.40840,-3.90475
31.98800,-4.40796,-3.90761
32.01000,-4.40282,-3.91241
32.02200,-4.40412,-3.90874
32.04400,-4.40548,-3.90997
32.05600,-4.40061,-3.91552
32.07800,-4.39616,-3.91565
32.09000,-4.39707,-3.91706
32.11200,-4.39820,-3.92515
32.13400,-4.40453,-3.92104
32.14600,-4.40240,-3.91901
32.16800,-4.39552,-3.92756
32.18000,-4.39653,-3.92456
32.20200,-4.40029,-3.92463
32.21400,-4.40008,-3.92612
32.23600,-4.40759,-3.92536
32.25800,-4.40979,-3.93886
32.27000,-4.40890,-3.94056
32.29200,-4.40225,-3.93202
32.30400,-4.40456,-3.93524
32.32600,-4.40422,-3.92612
32.33800,-4.40363,-3.92458
32.36000,-4.39522,-3.93245
32.37200,-4.39707,-3.93079
32.39400,-4.39863,-3.93498
32.41600,-4.39942,-3.93797
32.42800,-4.40181,-3.93550
32.45000,-4.40209,-3.93717
32.46200,-4.40149,-3.93467
32.48400,-4.39669,-3.93288
32.49600,-4.39675,-3.92908
32.51800,-4.39401,-3.93035
32.54000,-4.39237,-3.93341
32.55200,-4.39170,-3.92947
32.57400,-4.39244,-3.93509
32.58600,-4.39308,-3.93293
32.60800,-4.39232,-3.93011
32.62000,-4.38957,-3.93001
32.64200,-4.38559,-3.93708
32.66400,-4.38747,-3.92353
32.67600,-4.38556,-3.92773
32.69800,-4.38004,-3.93051
32.71500,-4.37955,-3.92926
32.72700,-4.37972,-3.93255
32.74900,-4.38275,-3.92911
32.76100,-4.38332,-3.92814
32.78300,-4.38683,-3.93114
32.80500,-4.38377,-3.92310
32.81700,-4.38128,-3.92364
32.83900,-4.37146,-3.93315
32.85100,-4.37509,-3.93196
32.87300,-4.36678,-3.92721
32.88500,-4.36733,-3.92921
32.90700,-4.36050,-3.92449
32.91900,-4.35785,-3.92359
32.94100,-4.35569,-3.92703
32.96300,-4.35920,-3.92439
32.97500,-4.35931,-3.92643
32.99700,-4.35667,-3.92846
33.00900,-4.35789,-3.92490
33.03100,-4.35356,-3.92406
33.04300,-4.35406,-3.92307
33.06500,-4.35472,-3.92371
33.08700,-4.35674,-3.93657
33.09900,-4.35904,-3.93671
33.12100,-4.36418,-3.93668
33.13300,-4.36205,-3.93752
33.15500,-4.36267,-3.93615
33.16700,-4.36138,-3.94085
33.18900,-4.36048,-3.93521
33.21100,-4.34986,-3.93637
33.22300,-4.34826,-3.93605
33.24500,-4.35133,-3.93533
33.25700,-4.34737,-3.93352
33.27900,-4.35059,-3.93455
33.29100,-4.35115,-3.93459
33.31300,-4.34810,-3.92882
33.32500,-4.34562,-3.93019
33.34700,-4.34631,-3.93475
33.36900,-4.35332,-3.93232
33.38100,-4.35368,-3.93681
33.40300,-4.35179,-3.92670
33.41500,-4.35538,-3.92703
33.43700,-4.35701,-3.93025
33.44900,-4.35570,-3.92446
33.47100,-4.36020,-3.92606
33.49300,-4.35318,-3.92347
33.50500,-4.35589,-3.92208
33.52700,-4.34450,-3.92584
33.53900,-4.34553,-3.92207
33.56100,-4.34785,-3.91626
33.57300,-4.34646,-3.91547
33.59500,-4.35432,-3.92250
33.61700,-4.35511,-3.92183
33.62900,-4.35607,-3.92539
33.65100,-4.35728,-3.92840
33.66300,-4.35738,-3.92765
33.68500,-4.36245,-3.92953
33.69700,-4.36243,-3.92356
33.71900,-4.35932,-3.92918
33.73100,-4.35699,-3.92882
33.75300,-4.36288,-3.92806
33.77500,-4.35646,-3.92784
33.78700,-4.35642,-3.92708
33.80900,-4.35863,-3.92397
33.82100,-4.35855,-3.92167
33.84300,-4.35951,-3.91897
33.85500,-4.35895,-3.92319
33.87700,-4.35990,-3.91693
33.89900,-4.36262,-3.91864
33.91100,-4.36232,-3.92052
33.93300,-4.36808,-3.91250
33.94500,-4.36853,-3.91559
33.96700,-4.37369,-3.91529
33.97900,-4.37046,-3.91080
34.00100,-4.36851,-3.92060
34.01300,-4.36943,-3.92071
34.03500,-4.37314,-3.91885
34.05700,-4.37395,-3.91966
34.06900,-4.37607,-3.91839
34.09100,-4.37607,-3.90744
34.10300,-4.37479,-3.90717
34.12500,-4.37021,-3.91234
34.13700,-4.36746,-3.90884
34.15900,-4.36663,-3.90850
34.18100,-4.36733,-3.91386
34.19300,-4.36670,-3.91557
34.21500,-4.37668,-3.91310
34.22700,-4.37238,-3.91487
34.24900,-4.36918,-3.91793
34.26100,-4.37065,-3.91506
34.28300,-4.36681,-3.91260
34.30500,-4.36290,-3.90655
34.31700,-4.36222,-3.90593
34.33900,-4.36704,-3.90173
34.35100,-4.36970,-3.90073
34.37300,-4.36493,-3.89987
34.38500,-4.36547,-3.89659
34.40700,-4.36663,-3.90245
34.41900,-4.36597,-3.90296
34.44100,-4.36018,-3.90298
34.46300,-4.35194,-3.91089
34.47500,-4.35522,-3.90891
34.49700,-4.36034,-3.90998
34.50900,-4.35890,-3.91350
34.53100,-4.36522,-3.91790
34.54300,-4.36817,-3.91978
34.56500,-4.36655,-3.91636
34.58700,-4.36189,-3.92111
34.59900,-4.36192,-3.92579
34.62100,-4.36792,-3.92151
34.63300,-4.37016,-3.92196
34.65500,-4.36791,-3.92745
34.66700,-4.37005,-3.92971
34.68900,-4.36950,-3.92865
34.71600,-4.36843,-3.93064
34.72800,-4.36722,-3.92789
34.74000,-4.36854,-3.93137
34.76200,-4.37043,-3.93027
34.77400,-4.37056,-3.92943
34.79600,-4.37514,-3.92896
34.80800,-4.37605,-3.92701
34.83000,-4.37277,-3.92956
34.85200,-4.37216,-3.93283
34.86400,-4.37466,-3.92891
34.88600,-4.37396,-3.93102
34.89800,-4.37581,-3.93150
34.92000,-4.37711,-3.93557
34.93200,-4.37360,-3.93598
34.95400,-4.37645,-3.93632
34.96600,-4.37737,-3.93250
34.98800,-4.37511,-3.93214
35.01000,-4.37381,-3.93649
35.02200,-4.37494,-3.93674
35.04400,-4.37507,-3.93727
35.05600,-4.37405,-3.93852
35.07800,-4.37561,-3.93740
35.09000,-4.37703,-3.93801
35.11200,-4.37933,-3.93616
35.13400,-4.38314,-3.93480
35.14600,-4.38382,-3.93344
35.16800,-4.38796,-3.93140
35.18000,-4.38560,-3.93207
35.20200,-4.39339,-3.93628
35.21400,-4.39319,-3.93899
35.23600,-4.38903,-3.93219
35.25800,-4.39129,-3.92255
35.27000,-4.38869,-3.92153
35.29200,-4.39151,-3.91217
35.30400,-4.38868,-3.91827
35.32600,-4.38925,-3.92240
35.33800,-4.39253,-3.92342
35.36000,-4.39150,-3.91891
35.37200,-4.39037,-3.91887
35.39400,-4.38921,-3.92093
35.41600,-4.38628,-3.91856
35.42800,-4.39096,-3.91749
35.45000,-4.39132,-3.91466
35.46200,-4.39204,-3.91764
35.48400,-4.39783,-3.91243
35.49600,-4.39844,-3.91273
35.51800,-4.39416,-3.91092
35.54000,-4.39102,-3.90315
35.55200,-4.38811,-3.90291
35.57400,-4.38557,-3.90188
35.58600,-4.38413,-3.89887
35.60800,-4.38418,-3.90429
35.62000,-4.38370,-3.90196
35.64200,-4.37978,-3.90423
35.65400,-4.38046,-3.90606
35.67600,-4.37580,-3.91114
35.69800,-4.38198,-3.91275
35.71000,-4.37970,-3.91616
35.73200,-4.38737,-3.91516
35.74400,-4.38998,-3.91248
35.76600,-4.39087,-3.91745
35.77800,-4.39346,-3.91565
35.80000,-4.38918,-3.91275
35.82200,-4.38575,-3.91692
35.83400,-4.38621,-3.91415
35.85600,-4.38661,-3.91432
35.86800,-4.38843,-3.91405
35.89000,-4.39449,-3.91150
35.90200,-4.39477,-3.90969
35.92400,-4.39180,-3.91373
35.94600,-4.39653,-3.90528
35.95800,-4.39679,-3.90807
35.98000,-4.39005,-3.90734
35.99200,-4.39636,-3.90137
36.01400,-4.39076,-3.91149
36.02600,-4.38960,-3.91078
36.04800,-4.39127,-3.90943
36.06000,-4.39047,-3.91561
36.08200,-4.37925,-3.91365
36.10400,-4.38205,-3.91355
36.11600,-4.37958,-3.91816
36.13800,-4.38433,-3.91791
36.15000,-4.38108,-3.91678
36.17200,-4.37853,-3.92565
36.18400,-4.38021,-3.91805
36.20600,-4.37738,-3.92095
36.22800,-4.37970,-3.92173
36.24000,-4.38156,-3.91484
36.26200,-4.38337,-3.92463
36.27400,-4.38143,-3.92188
36.29600,-4.38454,-3.91486
36.30800,-4.38378,-3.91471
36.33000,-4.38266,-3.90750
36.35200,-4.37449,-3.90141
36.36400,-4.37603,-3.90197
36.38600,-4.38064,-3.90331
36.39800,-4.38363,-3.90422
36.42000,-4.37804,-3.90930
36.43200,-4.37987,-3.90825
36.45400,-4.37138,-3.91324
36.46600,-4.37318,-3.91032
36.48800,-4.36962,-3.90982
36.51000,-4.36329,-3.91087
36.52200,-4.37053,-3.91083
36.54400,-4.37226,-3.90707
36.55600,-4.36945,-3.90829
36.57800,-4.37264,-3.90811
36.59000,-4.37292,-3.90877
36.61200,-4.37582,-3.91481
36.63400,-4.37191,-3.91502
36.64600,-4.37218,-3.91183
36.66800,-4.37752,-3.91290
36.68000,-4.37625,-3.91283
36.70200,-4.37926,-3.91516
36.71900,-4.37385,-3.91781
36.73100,-4.37379,-3.91738
36.75300,-4.37242,-3.91980
36.77500,-4.37827,-3.92235
36.78700,-4.37837,-3.91818
36.80900,-4.37683,-3.92280
36.82100,-4.37718,-3.92390
36.84300,-4.37220,-3.91770
36.85500,-4.37208,-3.91491
36.87700,-4.37757,-3.91421
36.89900,-4.37618,-3.91795
36.91100,-4.37523,-3.91673
36.93300,-4.36721,-3.91268
36.94500,-4.36489,-3.91369
36.96700,-4.36694,-3.90644
36.97900,-4.36367,-3.90405
37.00100,-4.36820,-3.90431
37.01300,-4.36737,-3.90152
37.03500,-4.37445,-3.91088
37.05700,-4.37700,-3.90819
37.06900,-4.37669,-3.90533
37.09100,-4.37140,-3.90124
37.10300,-4.37150,-3.90110
37.12500,-4.37486,-3.90399
37.13700,-4.37548,-3.90942
37.15900,-4.38127,-3.90072
37.18100,-4.38086,-3.89319
37.19300,-4.38379,-3.89793
37.21500,-4.38386,-3.88995
37.22700,-4.38393,-3.89072
37.24900,-4.38403,-3.88891
37.26100,-4.38443,-3.88673
37.28300,-4.38754,-3.89447
37.29528,-4.38972,-3.89270
37.31700,-4.38216,-3.88586
37.33900,-4.38293,-3.88759
37.35100,-4.38300,-3.88727
37.37300,-4.38136,-3.89243
37.38500,-4.37803,-3.89542
37.40700,-4.38202,-3.88660
37.41900,-4.38145,-3.88601
37.44100,-4.38251,-3.88427
37.46300,-4.38604,-3.87792
37.47500,-4.38513,-3.88238
37.49700,-4.38221,-3.87707
37.50900,-4.38199,-3.87698
37.53100,-4.37943,-3.87694
37.54300,-4.38123,-3.87489
37.56500,-4.37728,-3.87315
37.58700,-4.37686,-3.87341
37.59900,-4.37912,-3.87120
37.62100,-4.38442,-3.86628
37.63300,-4.38455,-3.86955
37.65500,-4.37911,-3.86468
37.66700,-4.37934,-3.86790
37.68900,-4.38119,-3.86762
37.70100,-4.38099,-3.86433
37.72300,-4.37311,-3.87570
37.74500,-4.37427,-3.86976
37.75700,-4.37838,-3.86450
37.77900,-4.36940,-3.87197
37.79100,-4.36742,-3.87144
37.81300,-4.36412,-3.87494
37.82500,-4.36578,-3.87867
37.84700,-4.36997,-3.87904
37.86900,-4.37132,-3.88255
37.88100,-4.37263,-3.88137
37.90300,-4.37500,-3.88103
37.91500,-4.37184,-3.88417
37.93700,-4.37247,-3.88442
37.94900,-4.37313,-3.88350
37.97100,-4.36814,-3.89197
37.99300,-4.37256,-3.89267
38.00500,-4.37238,-3.89477
38.02700,-4.36829,-3.88857
38.03900,-4.36676,-3.88888
38.06100,-4.36685,-3.89575
38.07300,-4.36622,-3.89739
38.09500,-4.36366,-3.89442
38.10700,-4.36158,-3.89353
38.12900,-4.36528,-3.88785
38.15100,-4.37121,-3.88660
38.16300,-4.37192,-3.88618
38.18500,-4.37438,-3.87579
38.19700,-4.37683,-3.87948
38.21900,-4.38228,-3.88387
38.23100,-4.38196,-3.88471
38.25300,-4.37819,-3.88520
38.27500,-4.39172,-3.88725
38.28700,-4.39214,-3.88916
38.30900,-4.38393,-3.89341
38.32100,-4.38454,-3.89383
38.34300,-4.38103,-3.88919
38.35500,-4.37959,-3.89102
38.37700,-4.38370,-3.88728
38.39900,-4.38002,-3.89183
38.41100,-4.37530,-3.89886
38.43300,-4.37367,-3.89698
38.44500,-4.37511,-3.89849
38.46700,-4.37637,-3.90243
38.47900,-4.37950,-3.90057
38.50100,-4.37568,-3.90452
38.51300,-4.37685,-3.90635
38.53500,-4.37519,-3.89993
38.55700,-4.36083,-3.90993
38.56900,-4.36038,-3.90242
38.59100,-4.35880,-3.90550
38.60300,-4.35631,-3.91103
38.62500,-4.35790,-3.90486
38.63700,-4.35130,-3.90508
38.65900,-4.35070,-3.91268
38.68100,-4.35153,-3.90406
38.69300,-4.34888,-3.90287
38.72000,-4.35198,-3.90532
38.73200,-4.35262,-3.90676
38.74400,-4.35093,-3.90905
38.76600,-4.34937,-3.91041
38.77800,-4.35340,-3.91075
38.80000,-4.35082,-3.90883
38.82200,-4.35292,-3.90833
38.83400,-4.35634,-3.91049
38.85600,-4.35829,-3.90815
38.86800,-4.35864,-3.90603
38.89000,-4.36044,-3.90367
38.90200,-4.35983,-3.90206
38.92400,-4.35436,-3.89076
38.94600,-4.35691,-3.89491
38.95800,-4.35547,-3.89653
38.98000,-4.35409,-3.89451
38.99200,-4.35813,-3.89473
39.01400,-4.35963,-3.90153
39.02600,-4.36266,-3.89567
39.04800,-4.35708,-3.90193
39.06000,-4.35753,-3.90207
39.08200,-4.35524,-3.89508
39.10400,-4.36419,-3.89717
39.11600,-4.36281,-3.89871
39.13800,-4.36535,-3.89828
39.15000,-4.36960,-3.89833
39.17200,-4.36615,-3.89793
39.18400,-4.36662,-3.89923
39.20600,-4.36480,-3.89347
39.22800,-4.36724,-3.89579
39.24000,-4.36646,-3.89415
39.26200,-4.36905,-3.88738
39.27400,-4.37267,-3.88997
39.29600,-4.36758,-3.89348
39.30800,-4.37162,-3.88981
39.33000,-4.37488,-3.90776
39.34200,-4.37736,-3.90881
39.36400,-4.37461,-3.89891
39.38600,-4.37087,-3.90429
39.39800,-4.37043,-3.90150
39.42000,-4.37744,-3.90041
39.43200,-4.38025,-3.89670
39.45400,-4.38125,-3.90215
39.46600,-4.37884,-3.90567
39.48800,-4.38121,-3.89757
39.51000,-4.38459,-3.89491
39.52200,-4.38686,-3.89710
39.54400,-4.38752,-3.89353
39.55600,-4.39075,-3.89598
39.57800,-4.38759,-3.89953
39.59000,-4.38199,-3.89896
39.61200,-4.38656,-3.90580
39.63400,-4.38393,-3.90268
39.64600,-4.38246,-3.89609
39.66800,-4.38527,-3.89405
39.68000,-4.38545,-3.89630
39.70200,-4.38595,-3.88923
39.71400,-4.38523,-3.88828
39.73600,-4.38701,-3.89143
39.74800,-4.38738,-3.89494
39.77000,-4.38596,-3.89362
39.79200,-4.38929,-3.90534
39.80400,-4.38810,-3.90422
39.82600,-4.38946,-3.90888
39.83800,-4.38805,-3.91035
39.86000,-4.40001,-3.90316
39.87200,-4.39753,-3.90787
39.89400,-4.39760,-3.90937
39.91600,-4.40188,-3.91125
39.92800,-4.40100,-3.91110
39.95000,-4.40715,-3.90727
39.96200,-4.40870,-3.90737
39.98400,-4.40535,-3.90806
39.99600,-4.40752,-3.90924
40.01800,-4.40619,-3.90958
40.04000,-4.41505,-3.90701
40.05200,-4.41383,-3.90342
40.07400,-4.41737,-3.89913
40.08600,-4.42027,-3.89784
40.10800,-4.41171,-3.90270
40.12000,-4.41406,-3.90352
40.14200,-4.41812,-3.90831
40.15400,-4.41637,-3.90737
40.17600,-4.41543,-3.90648
40.19800,-4.41534,-3.90184
40.21000,-4.41445,-3.90204
40.23200,-4.41857,-3.89108
40.24400,-4.41914,-3.88988
40.26600,-4.41919,-3.89054
40.27800,-4.41625,-3.88953
40.30000,-4.42498,-3.88408
40.32200,-4.42588,-3.88568
40.33400,-4.42715,-3.88874
40.35600,-4.42814,-3.89032
40.36800,-4.42636,-3.89140
40.39000,-4.42447,-3.89027
40.40200,-4.42437,-3.89012
40.42400,-4.42522,-3.89280
40.43600,-4.42471,-3.89251
40.45800,-4.42278,-3.89898
40.48000,-4.42701,-3.90429
40.49200,-4.42143,-3.90655
40.51400,-4.41888,-3.91470
40.52600,-4.41962,-3.91190
40.54800,-4.42138,-3.91231
40.56000,-4.42385,-3.91027
40.58200,-4.42038,-3.89887
40.60400,-4.42414,-3.89993
40.61600,-4.42393,-3.90126
40.63800,-4.43139,-3.90963
40.65000,-4.43295,-3.90675
40.67200,-4.43268,-3.90064
40.68400,-4.43735,-3.90438
40.70600,-4.43334,-3.90095
40.72300,-4.42823,-3.90121
40.74500,-4.42487,-3.90079
40.75700,-4.42740,-3.89751
40.77900,-4.42753,-3.89548
40.79100,-4.42975,-3.90033
40.81300,-4.43475,-3.89655
40.82500,-4.43602,-3.89485
40.84700,-4.44097,-3.89779
40.86900,-4.44772,-3.88860
40.88100,-4.44970,-3.88819
40.90300,-4.44940,-3.89298
40.91500,-4.44644,-3.89468
40.93700,-4.44666,-3.90427
40.94900,-4.44774,-3.90024
40.97100,-4.44659,-3.90133
40.98328,-4.44725,-3.90640
41.00600,-4.44659,-3.90571
41.02800,-4.44685,-3.89846
41.04000,-4.44900,-3.90062
41.06200,-4.45468,-3.90045
41.07400,-4.45420,-3.89973
41.09600,-4.46146,-3.90417
41.10800,-4.46537,-3.90732
41.13000,-4.46793,-3.90657
41.14200,-4.46776,-3.90680
41.16400,-4.46443,-3.91025
41.18600,-4.46406,-3.91269
41.19800,-4.46483,-3.91754
41.22000,-4.46840,-3.91668
41.23200,-4.46958,-3.91310
41.25400,-4.46824,-3.91717
41.26600,-4.46849,-3.91050
41.28800,-4.46831,-3.90782
41.31000,-4.46776,-3.91081
41.32200,-4.47158,-3.91145
41.34400,-4.46819,-3.91852
41.35600,-4.46747,-3.92019
41.37800,-4.46050,-3.91716
41.39000,-4.45963,-3.91788
41.41200,-4.46151,-3.91924
41.43400,-4.46270,-3.91599
41.44600,-4.46238,-3.91470
41.46800,-4.46621,-3.91555
41.48000,-4.46688,-3.91537
41.50200,-4.47204,-3.91758
41.51400,-4.47148,-3.91905
41.53600,-4.46610,-3.93340
41.54800,-4.46756,-3.93024
41.57000,-4.46734,-3.93475
41.59200,-4.46697,-3.93202
41.60400,-4.46548,-3.92928
41.62600,-4.46080,-3.94013
41.63800,-4.46149,-3.94224
41.66000,-4.46455,-3.93142
41.67200,-4.46322,-3.93177
41.69400,-4.46232,-3.93473
41.71600,-4.46570,-3.92992
41.72800,-4.46472,-3.92817
41.75000,-4.46016,-3.92644
41.76200,-4.46067,-3.92617
41.78400,-4.46339,-3.92400
41.79600,-4.46081,-3.92160
41.81800,-4.45507,-3.92762
41.83029,-4.45188,-3.92842
41.85200,-4.45613,-3.93366
41.87400,-4.45723,-3.93097
41.88600,-4.45603,-3.93231
41.90800,-4.46060,-3.93019
41.92000,-4.45796,-3.92687
41.94200,-4.45645,-3.92704
41.95400,-4.45887,-3.92349
41.97600,-4.45728,-3.92331
41.99800,-4.45822,-3.92688
42.01000,-4.45686,-3.92543
42.03200,-4.45675,-3.93110
42.04400,-4.46015,-3.92916
42.06600,-4.45655,-3.92845
42.07800,-4.45330,-3.92503
42.10000,-4.45415,-3.91937
42.12200,-4.45673,-3.92344
42.13400,-4.45134,-3.92545
42.15600,-4.44943,-3.92615
42.16800,-4.44906,-3.92804
42.19000,-4.45448,-3.92944
42.20200,-4.45587,-3.92810
42.22400,-4.45272,-3.92339
42.23600,-4.45111,-3.91863
42.25800,-4.44975,-3.91649
42.28000,-4.45092,-3.91786
42.29200,-4.44971,-3.91693
42.31400,-4.44965,-3.91623
42.32600,-4.45258,-3.91965
42.34800,-4.45803,-3.91723
42.36000,-4.45085,-3.91978
42.38200,-4.45148,-3.91865
42.40400,-4.45372,-3.91790
42.41600,-4.45436,-3.91842
42.43800,-4.45472,-3.92385
42.45000,-4.45218,-3.92604
42.47200,-4.45306,-3.92418
42.48400,-4.45155,-3.92589
42.50600,-4.44250,-3.91989
42.52800,-4.44802,-3.92162
42.54000,-4.44893,-3.92124
42.56200,-4.44894,-3.91453
42.57400,-4.45208,-3.91310
42.59600,-4.44897,-3.91824
42.60800,-4.44942,-3.91751
42.63000,-4.44451,-3.91464
42.64200,-4.44386,-3.91158
42.66400,-4.44251,-3.91350
42.68600,-4.43682,-3.90609
42.69800,-4.43415,-3.90772
42.72500,-4.43404,-3.90562
42.73700,-4.43837,-3.90592
42.74900,-4.43801,-3.90716
42.77100,-4.43975,-3.90258
42.78300,-4.43993,-3.90853
42.80500,-4.43998,-3.91419
42.82700,-4.43919,-3.91211
42.83900,-4.43700,-3.91150
42.86100,-4.44151,-3.91257
42.87300,-4.44263,-3.90645
42.89500,-4.43693,-3.91413
42.90700,-4.44142,-3.91515
42.92900,-4.44662,-3.90937
42.95100,-4.44698,-3.92200
42.96300,-4.44908,-3.92159
42.98500,-4.44844,-3.90722
42.99700,-4.44667,-3.91706
43.01900,-4.45051,-3.90746
43.03100,-4.45230,-3.90926
43.05300,-4.45289,-3.91606
43.07500,-4.44906,-3.91193
43.08700,-4.44923,-3.91236
43.10900,-4.45226,-3.90772
43.12100,-4.45185,-3.90524
43.14300,-4.44934,-3.90969
43.15500,-4.45023,-3.91171
43.17700,-4.45071,-3.91469
43.18900,-4.44759,-3.91298
43.21100,-4.44108,-3.91551
43.23300,-4.44332,-3.91736
43.24500,-4.44718,-3.91561
43.26700,-4.44386,-3.91109
43.27900,-4.44619,-3.91656
43.30100,-4.44639,-3.90998
43.31300,-4.44711,-3.91524
43.33500,-4.44772,-3.91677
43.35700,-4.44903,-3.91234
43.36900,-4.44789,-3.91231
43.39100,-4.45174,-3.91506
43.40300,-4.45543,-3.91393
43.42500,-4.45336,-3.91034
43.43700,-4.45223,-3.90886
43.45900,-4.45066,-3.90419
43.47129,-4.44767,-3.90753
43.49300,-4.44519,-3.90806
43.51500,-4.44684,-3.90871
43.52700,-4.44615,-3.90625
43.54900,-4.44687,-3.90564
43.56100,-4.44541,-3.90456
43.58300,-4.44871,-3.89739
43.59500,-4.44950,-3.89787
43.61700,-4.44345,-3.90775
43.63900,-4.44572,-3.89719
43.65100,-4.44411,-3.89963
43.67300,-4.44118,-3.90447
43.68500,-4.44329,-3.90573
43.70700,-4.43898,-3.90655
43.71900,-4.43586,-3.90944
43.74100,-4.43556,-3.90391
43.76300,-4.43403,-3.90493
43.77500,-4.43412,-3.90976
43.79700,-4.43944,-3.90375
43.80900,-4.44031,-3.90723
43.83100,-4.43639,-3.91518
43.84300,-4.43332,-3.91401
43.86500,-4.43105,-3.91842
43.87700,-4.43435,-3.91825
43.89900,-4.44018,-3.91837
43.92100,-4.44042,-3.92572
43.93300,-4.44277,-3.92343
43.95500,-4.44189,-3.92100
43.96700,-4.44183,-3.92809
43.98900,-4.43638,-3.92565
44.00100,-4.43368,-3.92778
44.02300,-4.43590,-3.92861
44.04500,-4.43613,-3.92613
44.05700,-4.43243,-3.92845
44.07900,-4.42795,-3.93508
44.09100,-4.42705,-3.93325
44.11300,-4.41559,-3.93512
44.12500,-4.41766,-3.93619
44.14700,-4.41849,-3.93352
44.16900,-4.41764,-3.93412
44.18100,-4.41704,-3.93606
44.20300,-4.40893,-3.93436
44.21500,-4.41317,-3.93523
44.23700,-4.40941,-3.93964
44.24900,-4.41040,-3.93418
44.27100,-4.40988,-3.93578
44.28300,-4.41151,-3.93664
44.30500,-4.40967,-3.93415
44.32700,-4.40021,-3.93569
44.33900,-4.39960,-3.93797
44.36100,-4.39727,-3.93560
44.37300,-4.39660,-3.93539
44.39500,-4.39794,-3.94080
44.40700,-4.39745,-3.94010
44.42900,-4.40109,-3.93976
44.45100,-4.39896,-3.94399
44.46300,-4.39934,-3.94388
44.48500,-4.39721,-3.93464
44.49700,-4.39485,-3.94031
44.51900,-4.39728,-3.94382
44.53100,-4.39939,-3.93793
44.55300,-4.39828,-3.93914
44.57500,-4.39792,-3.94325
44.58700,-4.39691,-3.94084
44.60900,-4.38747,-3.94071
44.62100,-4.38623,-3.94064
44.64300,-4.38547,-3.94219
44.65500,-4.38715,-3.94452
44.67700,-4.38717,-3.94562
44.68900,-4.38563,-3.94472
44.71100,-4.38249,-3.94498
44.72800,-4.38012,-3.94035
44.75000,-4.38512,-3.93888
44.76200,-4.38199,-3.93781
44.78400,-4.38342,-3.93165
44.79600,-4.38137,-3.93041
44.81800,-4.38187,-3.93353
44.83000,-4.38432,-3.93435
44.85200,-4.38755,-3.93431
44.87400,-4.38061,-3.93958
44.88600,-4.37762,-3.94399
44.90800,-4.38124,-3.93874
44.92000,-4.38657,-3.93694
44.94200,-4.37907,-3.94202
44.95400,-4.38000,-3.94191
44.97600,-4.38208,-3.94200
44.99800,-4.39240,-3.94743
45.01000,-4.39330,-3.94719
45.03200,-4.39034,-3.95175
45.04400,-4.39197,-3.95329
45.06600,-4.39564,-3.95306
45.07800,-4.39431,-3.95201
45.10000,-4.39519,-3.96044
45.12200,-4.39761,-3.95144
45.13400,-4.40374,-3.95312
45.15600,-4.39675,-3.96160
45.16800,-4.39869,-3.96274
45.19000,-4.39415,-3.96295
45.20200,-4.39211,-3.96727
45.22400,-4.38992,-3.96415
45.23600,-4.38912,-3.96769
45.25800,-4.38708,-3.97096
45.28000,-4.38313,-3.97459
45.29200,-4.38367,-3.97657
45.31400,-4.38187,-3.97055
45.32600,-4.38174,-3.96812
45.34800,-4.37842,-3.96958
45.37000,-4.38256,-3.96199
45.38200,-4.38450,-3.96189
45.40400,-4.38771,-3.96403
45.41600,-4.38894,-3.96365
45.43800,-4.39328,-3.96146
45.45000,-4.39434,-3.96274
45.47200,-4.38914,-3.96168
45.48400,-4.39494,-3.96573
45.50600,-4.40053,-3.96403
45.51800,-4.39986,-3.96790
45.54000,-4.39689,-3.97310
45.56200,-4.39334,-3.96923
45.57400,-4.39546,-3.96862
45.59600,-4.39734,-3.96766
45.60800,-4.39678,-3.96734
45.63000,-4.39630,-3.95922
45.64200,-4.39433,-3.96166
45.66400,-4.39309,-3.96864
45.68600,-4.39835,-3.96011
45.69800,-4.39256,-3.95789
45.72000,-4.39635,-3.96305
45.73200,-4.39927,-3.95963
45.75400,-4.39517,-3.96741
45.76600,-4.39529,-3.96722
45.78800,-4.40029,-3.96286
45.81000,-4.39987,-3.96740
45.82200,-4.40166,-3.96682
45.84400,-4.39928,-3.97693
45.85600,-4.40042,-3.97733
45.87800,-4.39500,-3.97873
45.89000,-4.39419,-3.98324
45.91200,-4.39248,-3.97378
45.92400,-4.39169,-3.97816
45.94600,-4.39370,-3.98303
45.96800,-4.40293,-3.98009
45.98000,-4.40481,-3.98290
46.00200,-4.40471,-3.97330
46.01400,-4.40754,-3.97172
46.03600,-4.40436,-3.98306
46.04800,-4.40308,-3.97894
46.07000,-4.40497,-3.98532
46.09200,-4.39880,-3.99178
46.10400,-4.40100,-3.99050
46.12600,-4.40075,-4.00192
46.13800,-4.39885,-3.99798
46.16000,-4.39476,-3.99487
46.17200,-4.39541,-3.99990
46.19400,-4.39381,-4.00092
46.21600,-4.39099,-3.99328
46.22800,-4.38559,-3.99456
46.25000,-4.38374,-3.98630
46.26200,-4.38363,-3.98407
46.28400,-4.38976,-3.97965
46.29600,-4.38851,-3.97890
46.31800,-4.38637,-3.97993
46.33000,-4.38870,-3.97965
46.35200,-4.38457,-3.98402
46.37400,-4.38034,-3.98513
46.38600,-4.37723,-3.98730
46.40800,-4.37761,-3.98992
46.42000,-4.37538,-3.98945
46.44200,-4.37350,-3.98658
46.45400,-4.37383,-3.98775
46.47600,-4.37704,-3.98891
46.49800,-4.37560,-3.98344
46.51000,-4.37519,-3.98895
46.53200,-4.37706,-3.98850
46.54400,-4.38136,-3.98660
46.56600,-4.38043,-3.99751
46.57800,-4.37816,-3.99014
46.60000,-4.38011,-3.99188
46.61228,-4.37809,-3.99697
46.63400,-4.38150,-3.98596
46.65600,-4.37889,-3.98834
46.66800,-4.37970,-3.98931
46.69000,-4.38237,-3.98251
46.70200,-4.38184,-3.98628
46.72900,-4.37687,-3.99726
46.74100,-4.37809,-3.99730
46.76300,-4.37801,-3.99846
46.77500,-4.37735,-3.99815
46.79700,-4.37898,-3.99215
46.80900,-4.37814,-3.99507
46.83100,-4.37540,-3.98952
46.84300,-4.37395,-3.98990
46.86500,-4.37574,-3.99351
46.87700,-4.37616,-3.99290
46.89900,-4.37280,-3.98771
46.92100,-4.36822,-3.97980
46.93300,-4.36980,-3.98128
46.95500,-4.37063,-3.98209
46.96700,-4.36780,-3.98146
46.98900,-4.36756,-3.97801
47.00100,-4.36796,-3.97912
47.02300,-4.37028,-3.97935
47.04500,-4.36090,-3.97630
47.05700,-4.36295,-3.97478
47.07900,-4.36714,-3.96849
47.09100,-4.36709,-3.97160
47.11300,-4.36387,-3.97630
47.12500,-4.36161,-3.97643
47.14700,-4.36941,-3.97584
47.15928,-4.36587,-3.97585
47.18200,-4.36360,-3.97771
47.20400,-4.36153,-3.98030
47.21600,-4.36389,-3.98439
47.23800,-4.35897,-3.98062
47.25000,-4.35905,-3.98100
47.27200,-4.35857,-3.98901
47.28400,-4.35668,-3.98790
47.30600,-4.35079,-3.97740
47.31800,-4.35149,-3.98322
47.34000,-4.35204,-3.97997
47.36200,-4.35456,-3.97949
47.37400,-4.35365,-3.98207
47.39600,-4.35318,-3.98169
47.40800,-4.35229,-3.97902
47.43000,-4.35245,-3.98169
47.44200,-4.34962,-3.98279
47.46400,-4.35598,-3.97605
47.48600,-4.35754,-3.97743
47.49800,-4.36101,-3.97419
47.52000,-4.36140,-3.97455
47.53200,-4.36142,-3.97613
47.55400,-4.36495,-3.97066
47.56600,-4.36633,-3.97048
47.58800,-4.36563,-3.97587
47.61000,-4.36676,-3.97374
47.62200,-4.36392,-3.97426
47.64400,-4.36342,-3.97928
47.65600,-4.36554,-3.97670
47.67800,-4.37284,-3.97759
47.69000,-4.37181,-3.97898
47.71200,-4.37738,-3.97905
47.72400,-4.37762,-3.97874
47.74600,-4.38367,-3.98240
47.76800,-4.38116,-3.98156
47.78000,-4.38133,-3.98431
47.80200,-4.38488,-3.97444
47.81400,-4.38182,-3.97637
47.83600,-4.38496,-3.97748
47.84800,-4.38484,-3.97622
47.87000,-4.38068,-3.97901
47.89200,-4.38124,-3.97669
47.90400,-4.37902,-3.97286
47.92600,-4.37409,-3.97438
47.93800,-4.37696,-3.97110
47.96000,-4.37421,-3.97437
47.97200,-4.37565,-3.97952
47.99400,-4.37452,-3.97368
48.00628,-4.37343,-3.97286
48.02800,-4.37719,-3.97706
48.05000,-4.37551,-3.96448
48.06200,-4.37781,-3.96472
48.08400,-4.38115,-3.96507
48.09600,-4.38244,-3.95723
48.11800,-4.38225,-3.96669
48.13000,-4.38319,-3.96814
48.15200,-4.38411,-3.95969
48.17400,-4.37619,-3.96194
48.18600,-4.37742,-3.95800
48.20800,-4.36938,-3.95410
48.22000,-4.36863,-3.95695
48.24200,-4.36787,-3.94785
48.25400,-4.37083,-3.94324
48.27600,-4.37570,-3.94990
48.29800,-4.38141,-3.94460
48.31000,-4.38129,-3.94442
48.33200,-4.38037,-3.94493
48.34400,-4.38252,-3.94124
48.36600,-4.38138,-3.93975
48.37800,-4.38474,-3.94101
48.40000,-4.38561,-3.93684
48.41200,-4.38680,-3.94097
48.43400,-4.39224,-3.93959
48.45600,-4.39573,-3.93548
48.46800,-4.39827,-3.93628
48.49000,-4.39848,-3.93856
48.50200,-4.39474,-3.94050
48.52400,-4.39015,-3.94517
48.53600,-4.39084,-3.94452
48.55800,-4.38145,-3.95095
48.58000,-4.38379,-3.95543
48.59200,-4.38289,-3.95296
48.61400,-4.37465,-3.95459
48.62600,-4.37674,-3.95534
48.64800,-4.37126,-3.95068
48.66000,-4.36964,-3.94652
48.68200,-4.36711,-3.94456
48.70400,-4.35933,-3.94381
48.71600,-4.35697,-3.94651
48.73300,-4.36403,-3.94190
48.75500,-4.37140,-3.94654
48.76700,-4.37098,-3.94941
48.78900,-4.37646,-3.94047
48.80100,-4.37667,-3.93775
48.82300,-4.37940,-3.93873
48.84500,-4.38033,-3.94699
48.85700,-4.38157,-3.94551
48.87900,-4.38447,-3.94580
48.89100,-4.38328,-3.94482
48.91300,-4.38428,-3.95146
48.92500,-4.38349,-3.95214
48.94700,-4.38689,-3.96079
48.95900,-4.38465,-3.96221
48.98100,-4.38438,-3.96578
49.00300,-4.38282,-3.96401
49.01500,-4.38494,-3.96314
49.03700,-4.38597,-3.95451
49.04900,-4.38557,-3.95350
49.07100,-4.38870,-3.94849
49.08300,-4.38862,-3.94762
49.10500,-4.39230,-3.95087
49.12700,-4.39890,-3.94281
49.13900,-4.39611,-3.94486
49.16100,-4.39562,-3.94562
49.17300,-4.39613,-3.94513
49.19500,-4.39692,-3.94537
49.20700,-4.39778,-3.94799
49.22900,-4.39938,-3.94830
49.25100,-4.39555,-3.95182
49.26300,-4.39408,-3.95265
49.28500,-4.40215,-3.94785
49.29700,-4.40347,-3.95231
49.31900,-4.40667,-3.94683
49.33100,-4.40487,-3.94524
49.35300,-4.40185,-3.94429
49.36500,-4.40389,-3.94254
49.38700,-4.40867,-3.95118
49.40900,-4.40940,-3.95011
49.42100,-4.40979,-3.94768
49.44300,-4.40672,-3.95785
49.45500,-4.40424,-3.95657
49.47700,-4.40512,-3.95462
49.48900,-4.40455,-3.96068
49.51100,-4.40424,-3.95894
49.53300,-4.40713,-3.95498
49.54500,-4.40869,-3.95427
49.56700,-4.40864,-3.95081
49.57900,-4.41048,-3.95071
49.60100,-4.40627,-3.95577
49.61300,-4.40893,-3.95280
49.63500,-4.41104,-3.94507
49.65700,-4.41168,-3.95541
49.66900,-4.41410,-3.95414
49.69100,-4.40973,-3.94839
49.70300,-4.41160,-3.94699
49.72500,-4.40513,-3.95316
49.73700,-4.40313,-3.95221
49.75900,-4.39842,-3.95660
49.77100,-4.39830,-3.95762
49.79300,-4.39798,-3.94962
49.81500,-4.40006,-3.94913
49.82700,-4.40347,-3.94890
49.84900,-4.41131,-3.93761
49.86100,-4.41225,-3.94377
49.88300,-4.41147,-3.94273
49.89500,-4.41292,-3.94221
49.91700,-4.41333,-3.94684
49.93900,-4.41485,-3.94521
49.95100,-4.41339,-3.94230
49.97300,-4.41792,-3.94396
49.98500,-4.42057,-3.94155
50.00700,-4.42058,-3.93984
50.01900,-4.41986,-3.93864
50.04100,-4.42556,-3.94336
50.05300,-4.42806,-3.94483
50.07500,-4.42467,-3.94172
50.09700,-4.42221,-3.94019
50.10900,-4.42298,-3.93910
50.13100,-4.41975,-3.94114
50.14300,-4.42031,-3.93753
50.16500,-4.41833,-3.93548
50.17700,-4.41841,-3.93704
50.19900,-4.41339,-3.93752
50.22100,-4.41067,-3.94185
50.23300,-4.41035,-3.94094
50.25500,-4.40819,-3.92949
50.26700,-4.40701,-3.93034
50.28900,-4.40523,-3.93431
50.30100,-4.40452,-3.93084
50.32300,-4.40639,-3.94074
50.34500,-4.40479,-3.94391
50.35700,-4.40589,-3.94093
50.37900,-4.40622,-3.95490
50.39100,-4.40770,-3.95339
50.41300,-4.40727,-3.94388
50.42500,-4.40699,-3.94698
50.44700,-4.41017,-3.94129
50.45900,-4.40858,-3.93992
50.48100,-4.40579,-3.94504
50.50300,-4.40791,-3.94263
50.51500,-4.40959,-3.94413
50.53700,-4.40553,-3.94510
50.54900,-4.40619,-3.94287
50.57100,-4.39785,-3.94147
50.58300,-4.39755,-3.94122
50.60500,-4.39413,-3.93620
50.62700,-4.38892,-3.94768
50.63900,-4.38656,-3.94436
50.66100,-4.38645,-3.94675
50.67300,-4.38520,-3.94967
50.69500,-4.38111,-3.94696
50.70700,-4.38232,-3.94239
50.73400,-4.37747,-3.94803
50.74600,-4.37893,-3.94517
50.76800,-4.38149,-3.94523
50.78000,-4.37950,-3.94427
50.80200,-4.38008,-3.94574
50.81400,-4.38090,-3.94549
50.83600,-4.37541,-3.94757
50.84800,-4.37357,-3.94794
50.87000,-4.37397,-3.94432
50.89200,-4.37571,-3.93246
50.90400,-4.37456,-3.93327
50.92600,-4.37723,-3.93759
50.93800,-4.38162,-3.93406
50.96000,-4.38522,-3.93882
50.97200,-4.38399,-3.94009
50.99400,-4.38541,-3.93193
51.00600,-4.38638,-3.93235
51.02800,-4.38868,-3.94132
51.05000,-4.38746,-3.93170
51.06200,-4.38667,-3.93675
51.08400,-4.38472,-3.93568
51.09600,-4.38985,-3.93637
51.11800,-4.38723,-3.93696
51.13000,-4.38667,-3.93817
51.15200,-4.38861,-3.94088
51.17400,-4.39419,-3.93116
51.18600,-4.39248,-3.93161
51.20800,-4.39025,-3.93907
51.22000,-4.39299,-3.93620
51.24200,-4.39027,-3.93753
51.25400,-4.38945,-3.93994
51.27600,-4.39272,-3.93955
51.29800,-4.39211,-3.93868
51.31000,-4.39112,-3.94295
51.33200,-4.39310,-3.93946
51.34400,-4.39253,-3.94344
51.36600,-4.38572,-3.95155
51.37800,-4.38542,-3.95370
51.40000,-4.38243,-3.95693
51.41200,-4.38188,-3.95512
51.43400,-4.38147,-3.94892
51.45600,-4.37570,-3.95302
51.46800,-4.37291,-3.95629
51.49000,-4.37134,-3.95393
51.50200,-4.36779,-3.95598
51.52400,-4.36763,-3.95162
51.53600,-4.37024,-3.95232
51.55800,-4.37146,-3.95653
51.58000,-4.36659,-3.95935
51.59200,-4.36619,-3.96053
51.61400,-4.36376,-3.96287
51.62600,-4.36210,-3.96222
51.64800,-4.36352,-3.96532
51.66000,-4.36517,-3.96450
51.68200,-4.36582,-3.97077
51.69428,-4.36463,-3.97586
51.71600,-4.36252,-3.96253
51.73800,-4.35766,-3.96502
51.75000,-4.35595,-3.96368
51.77200,-4.35741,-3.96122
51.78400,-4.36059,-3.96428
51.80600,-4.36333,-3.96774
51.81800,-4.36463,-3.96405
51.84000,-4.36370,-3.97348
51.86200,-4.36756,-3.96497
51.87400,-4.36551,-3.96189
51.89600,-4.36841,-3.96950
51.90800,-4.36734,-3.96712
51.93000,-4.36675,-3.96561
51.94200,-4.36616,-3.96511
51.96400,-4.36293,-3.96673
51.98600,-4.36195,-3.96665
51.99800,-4.36284,-3.96331
52.02000,-4.36521,-3.96162
52.03200,-4.36528,-3.95872
52.05400,-4.36631,-3.96363
52.06600,-4.36794,-3.96224
52.08800,-4.36956,-3.96679
52.10000,-4.36846,-3.96607
52.12200,-4.36966,-3.96505
52.14400,-4.37078,-3.96114
52.15600,-4.37213,-3.96001
52.17800,-4.36677,-3.96938
52.19000,-4.36872,-3.97099
52.21200,-4.37287,-3.97094
52.22400,-4.37833,-3.97214
52.24600,-4.38319,-3.97004
52.26800,-4.38495,-3.96760
52.28000,-4.38409,-3.96766
52.30200,-4.39019,-3.97632
52.31400,-4.39142,-3.97175
52.33600,-4.39241,-3.96944
52.34800,-4.39261,-3.97126
52.37000,-4.39584,-3.96624
52.39200,-4.38900,-3.96663
52.40400,-4.38885,-3.96811
52.42600,-4.38282,-3.96470
52.43800,-4.38142,-3.96558
52.46000,-4.37576,-3.96478
52.47200,-4.37817,-3.96668
52.49400,-4.37913,-3.96916
52.50600,-4.37695,-3.96823
52.52800,-4.37851,-3.97320
52.55000,-4.38343,-3.97270
52.56200,-4.38520,-3.97014
52.58400,-4.38185,-3.97959
52.59600,-4.38029,-3.98067
52.61800,-4.38373,-3.97650
52.63000,-4.38444,-3.98045
52.65200,-4.38883,-3.97954
52.67400,-4.39326,-3.97343
52.68600,-4.39592,-3.97173
52.70800,-4.39873,-3.97605
52.72000,-4.39799,-3.97500
52.73700,-4.39863,-3.98001
52.75900,-4.39778,-3.98143
52.77100,-4.39731,-3.98102
52.79300,-4.39387,-3.97568
52.81500,-4.39628,-3.96564
52.82700,-4.39476,-3.96375
52.84900,-4.39397,-3.96875
52.86100,-4.39440,-3.96606
52.88300,-4.39460,-3.95699
52.89500,-4.38794,-3.95596
52.91700,-4.39311,-3.95786
